* Measurement data measured by REW V5.31
* Source: Scarlett 2i4 USB, MICROPHONE, R, volume: no control. Timing signal peak level -28.4 dBFS, measurement signal peak level -18.0 dBFS
* Format: 512k Log Swept Sine, 1 sweep at -18.0 dBFS using an acoustic timing reference
* Dated: Apr 16, 2024 8:42:17 AM
* REW Settings:
*  C-weighting compensation: Off
*  Target level: 75.0 dB
* Note: ; Delay -6.6373 ms (-2.277 m, -(7 ft 5.6 in)) using estimated IR delay relative to Acoustic reference played from SPEAKER L with no timing offset
* Measurement: rug-p3-rr
* Smoothing: 1/48 octave
* Frequency Step: 96 ppo
* Start Frequency: 10.093689 Hz
*
* Freq(Hz) SPL(dB) Phase(degrees)
10.093689 18.278 -50.9342
10.166832 18.786 -54.5072
10.240505 19.396 -58.1868
10.314712 20.021 -61.8327
10.389457 20.637 -65.4106
10.464743 21.192 -69.0142
10.540575 21.654 -72.9335
10.616956 22.049 -76.9566
10.693891 22.381 -80.8760
10.771383 22.644 -84.5732
10.849437 22.843 -88.4489
10.928057 22.972 -92.6129
11.007246 23.022 -96.7458
11.087009 22.981 -100.5558
11.167350 22.853 -104.1679
11.248273 22.643 -108.1240
11.329783 22.312 -112.1026
11.411883 21.815 -115.6418
11.494578 21.109 -118.4743
11.577873 20.196 -121.2536
11.661771 19.114 -123.6291
11.746277 17.892 -124.6751
11.831395 16.434 -122.8086
11.917130 14.604 -116.0564
12.003487 12.892 -98.8799
12.090469 12.178 -68.4585
12.178081 13.238 -43.1860
12.266329 15.664 -30.4574
12.355216 18.418 -25.8601
12.444747 20.751 -25.5161
12.534926 22.488 -27.4967
12.625760 23.912 -30.4250
12.717251 25.131 -33.7912
12.809406 26.196 -37.5236
12.902228 27.093 -41.9310
12.995723 27.829 -46.5913
13.089895 28.445 -51.1407
13.184750 28.964 -55.7019
13.280292 29.371 -60.7552
13.376526 29.671 -65.8262
13.473458 29.875 -70.5313
13.571093 29.983 -75.4401
13.669434 29.989 -80.6037
13.768489 29.890 -85.5002
13.868261 29.686 -89.9904
13.968756 29.373 -94.7182
14.069979 28.936 -99.3028
14.171936 28.359 -103.1524
14.274632 27.638 -106.6149
14.378072 26.774 -109.6414
14.482261 25.750 -111.5819
14.587206 24.477 -111.6472
14.692910 23.110 -109.4430
14.799381 21.998 -104.5808
14.906624 21.341 -95.9270
15.014643 21.108 -83.9351
15.123446 21.350 -73.3608
15.233036 22.157 -66.8430
15.343421 23.379 -63.4570
15.454606 24.586 -62.9356
15.566596 25.537 -64.9256
15.679398 26.319 -68.5869
15.793018 26.936 -72.9446
15.907460 27.374 -78.1918
16.022732 27.640 -84.5942
16.138840 27.751 -91.1350
16.255788 27.715 -98.1670
16.373585 27.527 -106.3200
16.492234 27.192 -114.5096
16.611744 26.706 -123.4247
16.732119 26.075 -133.7464
16.853367 25.312 -144.3671
16.975494 24.397 -156.7254
17.098505 23.425 -171.5274
17.222408 22.519 172.3359
17.347209 21.695 152.3080
17.472914 21.132 129.7841
17.599530 21.015 107.6963
17.727063 21.261 85.6738
17.855521 21.659 67.7352
17.984909 22.154 52.0919
18.115235 22.646 38.3145
18.246506 22.989 27.2693
18.378727 23.186 16.6975
18.511907 23.221 7.5590
18.646052 23.079 -0.4193
18.781169 22.767 -7.9789
18.917265 22.287 -14.0945
19.054347 21.640 -19.3278
19.192423 20.862 -23.5487
19.331499 19.957 -25.9813
19.471583 18.999 -26.9365
19.612682 18.091 -26.5228
19.754804 17.260 -24.0787
19.897956 16.584 -21.2733
20.042144 16.094 -18.2183
20.187378 15.626 -15.2764
20.333664 15.073 -13.2675
20.481010 14.332 -11.1017
20.629424 13.175 -6.8193
20.778913 11.861 1.2311
20.929486 11.410 20.3362
21.081150 12.156 50.2024
21.233912 13.976 70.6293
21.387782 16.597 79.2361
21.542767 19.137 80.6315
21.698874 21.165 78.3025
21.856113 22.833 74.4919
22.014492 24.186 69.3802
22.174018 25.254 63.8052
22.334700 26.083 57.9485
22.496546 26.679 51.8274
22.659566 27.062 46.0172
22.823766 27.233 40.1122
22.989157 27.194 34.9637
23.155745 26.942 30.0986
23.323542 26.473 26.5294
23.492554 25.794 24.1030
23.662790 24.939 24.0060
23.834261 24.011 26.8920
24.006973 23.310 33.7176
24.180938 23.050 44.5473
24.356163 23.577 56.1183
24.532658 24.711 65.6245
24.710431 26.084 71.1607
24.889493 27.520 73.7358
25.069853 28.823 74.0982
25.251519 29.995 73.1726
25.434502 31.026 71.3869
25.618811 31.941 69.1292
25.804456 32.754 66.5343
25.991445 33.483 63.7676
26.179790 34.136 60.8477
26.369500 34.723 57.8579
26.560584 35.245 54.8079
26.753053 35.706 51.7540
26.946917 36.106 48.7748
27.142185 36.447 45.8906
27.338869 36.738 43.2728
27.536977 36.989 40.9169
27.736522 37.222 38.9852
27.937512 37.459 37.4217
28.139959 37.729 36.2729
28.343872 38.055 35.3042
28.549264 38.449 34.4464
28.756143 38.910 33.3305
28.964522 39.416 31.8468
29.174411 39.941 29.8348
29.385821 40.445 27.2562
29.598763 40.902 24.1899
29.813248 41.284 20.7092
30.029287 41.578 17.0667
30.246891 41.775 13.3149
30.466073 41.878 9.7766
30.686842 41.903 6.5717
30.909212 41.869 3.8318
31.133193 41.815 1.7071
31.358797 41.776 0.0893
31.586035 41.785 -1.0751
31.814921 41.862 -2.1504
32.045465 41.997 -3.3904
32.277680 42.163 -4.9901
32.511577 42.313 -7.1127
32.747169 42.404 -9.5938
32.984469 42.405 -12.3016
33.223488 42.297 -14.9299
33.464239 42.087 -17.0253
33.706735 41.811 -18.3296
33.950987 41.530 -18.5093
34.197010 41.349 -17.5680
34.444816 41.350 -16.0511
34.694417 41.559 -14.6415
34.945827 41.938 -14.1484
35.199059 42.373 -15.1040
35.454126 42.765 -17.3739
35.711041 43.036 -20.7020
35.969818 43.135 -24.7663
36.230470 43.034 -29.0151
36.493011 42.728 -33.0259
36.757455 42.228 -36.4460
37.023814 41.556 -38.8577
37.292104 40.756 -39.8483
37.562338 39.890 -39.2526
37.834530 39.021 -37.0632
38.108695 38.196 -33.4010
38.384846 37.437 -28.4680
38.662999 36.748 -22.2742
38.943167 36.161 -14.3624
39.225365 35.802 -4.1667
39.509608 35.860 8.1431
39.795911 36.455 20.9525
40.084289 37.526 31.9700
40.374756 38.846 39.9876
40.667328 40.197 45.2300
40.962020 41.470 48.5995
41.258848 42.645 51.0451
41.557827 43.765 53.3114
41.858972 44.915 55.7949
42.162299 46.187 58.3890
42.467824 47.629 60.4605
42.775564 49.210 61.1552
43.085533 50.837 59.8682
43.397749 52.402 56.4638
43.712227 53.824 51.1688
44.028983 55.054 44.3824
44.348036 56.064 36.5181
44.669400 56.844 27.9454
44.993093 57.392 18.9852
45.319131 57.709 9.9207
45.647532 57.804 1.0115
45.978313 57.689 -7.4971
46.311491 57.380 -15.3739
46.647083 56.904 -22.4155
46.985107 56.290 -28.4722
47.325581 55.575 -33.4808
47.668521 54.787 -37.4774
48.013947 53.944 -40.5554
48.361876 53.046 -42.7674
48.712326 52.088 -44.0309
49.065315 51.074 -44.1401
49.420863 50.036 -42.9410
49.778987 49.012 -40.5685
50.139706 48.000 -37.3907
50.503039 46.937 -33.3750
50.869005 45.766 -27.2349
51.237623 44.660 -15.7832
51.608912 44.249 3.6099
51.982891 45.113 25.1710
52.359580 46.926 40.4861
52.739000 49.112 50.0543
53.121168 51.461 55.9964
53.506106 53.873 58.1456
53.893833 56.179 55.9555
54.284370 58.206 49.7896
54.677737 59.841 40.6383
55.073955 61.028 29.6032
55.473043 61.754 17.6793
55.875024 62.026 5.7489
56.279917 61.872 -5.4465
56.687745 61.348 -15.0935
57.098527 60.556 -22.4515
57.512287 59.647 -27.1906
57.929045 58.780 -29.7273
58.348822 58.037 -31.0695
58.771642 57.389 -32.1404
59.197525 56.755 -33.0691
59.626495 56.095 -33.4611
60.058573 55.427 -33.0173
60.493782 54.788 -31.8120
60.932145 54.191 -30.0834
61.373685 53.631 -27.9219
61.818424 53.106 -25.3611
62.266386 52.608 -22.5308
62.717593 52.108 -19.4144
63.172071 51.586 -15.4567
63.629842 51.116 -9.8163
64.090930 50.849 -2.5199
64.555359 50.866 4.8499
65.023154 51.050 10.7365
65.494339 51.217 15.3062
65.968938 51.291 20.1342
66.446976 51.405 27.2043
66.928478 51.926 37.9182
67.413469 53.174 50.1565
67.901975 54.962 58.3651
68.394021 56.773 59.9992
68.889632 58.241 56.8030
69.388835 59.223 51.2846
69.891655 59.725 45.4077
70.398118 59.845 40.7109
70.908252 59.717 37.8958
71.422083 59.472 37.0938
71.939636 59.205 38.3245
72.460941 59.049 41.9535
72.986023 59.199 47.7915
73.514909 59.766 53.8774
74.047629 60.624 58.1840
74.584208 61.591 60.6402
75.124676 62.609 62.0602
75.669061 63.673 62.3924
76.217390 64.704 60.8929
76.769692 65.564 57.4928
77.325997 66.151 53.0021
77.886333 66.455 48.6978
78.450730 66.554 45.6334
79.019216 66.591 44.4492
79.591822 66.739 45.0774
80.168577 67.122 46.5216
80.749512 67.729 47.2067
81.334656 68.409 46.0131
81.924040 68.991 43.1013
82.517696 69.391 39.4446
83.115653 69.628 36.0026
83.717943 69.777 33.1487
84.324598 69.888 30.5803
84.935649 69.946 27.9311
85.551128 69.912 25.2635
86.171066 69.767 23.0190
86.795497 69.538 21.7120
87.424453 69.294 21.6813
88.057967 69.129 22.9329
88.696071 69.134 25.0833
89.338800 69.356 27.4232
89.986185 69.781 29.0729
90.638262 70.330 29.3867
91.295065 70.917 28.3329
91.956626 71.499 26.1041
92.622982 72.036 22.3964
93.294166 72.419 16.6720
93.970214 72.488 9.1300
94.651161 72.113 0.9297
95.337042 71.245 -6.2849
96.027894 69.922 -10.6790
96.723752 68.293 -10.1134
97.424652 66.717 -2.7913
98.130631 65.729 9.4135
98.841726 65.577 20.9854
99.557974 66.020 29.5575
100.279412 66.750 35.4914
101.006078 67.585 39.1866
101.738010 68.430 41.0170
102.475245 69.209 40.8293
103.217823 69.778 38.2090
103.965782 69.963 33.9033
104.719161 69.690 30.2254
105.477999 69.121 30.2692
106.242336 68.694 35.6165
107.012212 68.819 43.0275
107.787666 69.415 47.6711
108.568740 70.109 48.5798
109.355474 70.630 46.9971
110.147909 70.855 44.2709
110.946086 70.760 41.8867
111.750047 70.442 41.5629
112.559834 70.121 44.1654
113.375489 70.020 48.5674
114.197055 70.193 52.8556
115.024574 70.543 55.9206
115.858089 70.910 57.2976
116.697645 71.136 57.2138
117.543284 71.121 56.8758
118.395051 70.908 58.3246
119.252990 70.736 63.2093
120.117147 70.904 70.5905
120.987565 71.513 77.8665
121.864291 72.465 83.6501
122.747370 73.633 87.6721
123.636848 74.926 89.8828
124.532771 76.257 89.9761
125.435187 77.513 87.5635
126.344142 78.566 82.6299
127.259684 79.334 76.1097
128.181860 79.858 69.4503
129.110718 80.214 62.3711
130.046308 80.268 53.1418
130.988677 79.734 42.9453
131.937875 78.557 36.7161
132.893951 77.177 38.9716
133.856956 76.253 44.9872
134.826938 75.771 47.0677
135.803950 75.239 47.2569
136.788041 74.582 51.2518
137.779264 74.240 60.6542
138.777669 74.478 69.1111
139.783309 75.080 74.4330
140.796237 75.974 80.0329
141.816504 77.153 84.0532
142.844165 78.255 82.3913
143.879273 78.901 76.8030
144.921881 79.078 72.0529
145.972045 79.107 70.6032
147.029819 79.244 70.0207
148.095257 79.402 67.7622
149.168417 79.406 64.5351
150.249353 79.219 61.8991
151.338121 78.920 60.4878
152.434780 78.585 59.8528
153.539385 78.217 59.5397
154.651995 77.794 59.8051
155.772667 77.381 61.8429
156.901460 77.260 67.3408
158.038432 77.775 74.7744
159.183644 78.727 77.0191
160.337154 79.487 72.1364
161.499023 79.708 64.5075
162.669312 79.411 57.4744
163.848081 78.718 51.7373
165.035392 77.688 47.3893
166.231306 76.353 45.2724
167.435887 74.756 45.4630
168.649196 72.939 48.6182
169.871298 71.449 62.3807
171.102255 72.016 103.2619
172.342133 74.479 129.8776
173.590995 76.722 127.1880
174.848907 78.000 117.1349
176.115934 78.495 108.9675
177.392143 78.658 105.3076
178.677599 78.901 104.9264
179.972371 79.373 104.6372
181.276525 79.962 102.4510
182.590129 80.535 98.5978
183.913252 81.053 93.5091
185.245964 81.434 86.0170
186.588332 81.395 74.6963
187.940428 80.618 62.2755
189.302322 79.094 54.4071
190.674085 77.207 53.4971
192.055788 75.423 55.3336
193.447503 73.804 55.2820
194.849303 72.064 55.6797
196.261262 70.487 68.5817
197.683452 70.555 96.2580
199.115948 72.329 105.4936
200.558824 74.216 96.1318
202.012156 75.511 75.3724
203.476019 76.069 43.9607
204.950490 75.869 0.3011
206.435646 75.122 -51.9498
207.931564 74.282 -95.7731
209.438322 73.766 -122.1084
210.955998 73.976 -133.1653
212.484672 75.061 -137.0723
214.024424 76.493 -142.6856
215.575333 77.759 -151.0776
217.137481 78.681 -160.8920
218.710948 79.302 -170.8021
220.295818 79.577 177.2684
221.892172 79.225 162.7651
223.500094 78.045 149.7784
225.119668 76.170 142.4734
226.750978 73.906 137.9850
228.394109 71.310 133.9386
230.049147 68.643 151.5941
231.716178 67.427 -138.8145
233.395289 68.220 -131.0816
235.086567 70.394 -119.8185
236.790102 73.566 -89.1406
238.505980 76.395 -86.6569
240.234293 78.184 -100.5232
241.975130 79.241 -112.4571
243.728581 79.923 -123.5745
245.494739 79.946 -138.1003
247.273695 79.091 -150.5055
249.065542 77.627 -156.3024
250.870374 76.032 -157.6310
252.688284 74.700 -158.4600
254.519367 74.047 -164.1652
256.363720 74.581 -170.9072
258.221437 76.047 -49.8932
260.092616 77.085 -71.4709
261.977354 76.955 -92.3232
263.875750 75.961 -102.1423
265.787903 74.762 -103.6740
267.713911 74.021 -95.3460
269.653877 74.582 -73.4109
271.607900 75.909 -68.1752
273.576083 76.786 -74.4254
275.558528 77.046 -79.0202
277.555338 77.165 -78.6395
279.566619 77.390 -78.8145
281.592474 77.452 -82.4191
283.633009 77.168 -85.0938
285.688331 76.887 -82.1381
287.758546 77.063 -77.4180
289.843763 77.442 -79.3112
291.944090 77.489 -85.2660
294.059638 77.234 -88.7448
296.190515 76.921 -93.1215
298.336833 76.198 -103.6306
300.498705 74.592 -111.6974
302.676243 72.485 -99.3821
304.869559 71.035 -86.3741
307.078770 70.131 -92.4402
309.303989 68.777 -105.2352
311.545334 66.881 -124.0684
313.802919 65.948 141.6765
316.076865 67.178 62.0547
318.367288 68.753 40.6868
320.674309 69.930 29.9642
322.998047 71.655 40.3630
325.338624 74.000 49.3417
327.696162 75.781 38.4391
330.070783 76.502 22.4374
332.462612 76.333 9.1566
334.871773 75.686 0.6907
337.298392 74.967 -4.7618
339.742595 74.365 -10.5605
342.204510 73.886 -18.3229
344.684265 73.452 -31.0523
347.181989 72.822 -52.2111
349.697813 71.736 -84.5204
352.231868 70.137 -132.9653
354.784285 68.192 165.6544
357.355198 66.417 123.8569
359.944741 66.643 -178.7761
362.553049 69.010 -169.3306
365.180258 70.890 167.2556
367.826505 71.252 142.7620
370.491927 70.225 127.2700
373.176665 68.475 125.5448
375.880856 66.794 130.5400
378.604644 65.603 140.3282
381.348169 65.427 161.9242
384.111575 66.425 177.9442
386.895006 67.921 -174.0173
389.698607 69.488 -168.5321
392.522524 70.870 -167.0171
395.366904 71.710 -171.0757
398.231895 72.033 -173.8766
401.117648 72.300 -172.2271
404.024312 72.893 -169.4590
406.952038 73.703 -169.9564
409.900981 74.247 -176.5891
412.871292 74.051 172.8134
415.863128 72.967 163.9640
418.876643 71.191 160.5658
421.911996 69.103 163.1440
424.969344 67.485 -173.9397
428.048847 67.205 -154.7035
431.150666 67.180 -157.7219
434.274961 66.480 -159.4133
437.421897 65.644 -148.3154
440.591636 65.278 -141.1759
443.784345 64.797 -143.0759
447.000189 63.761 -144.0924
450.239337 62.212 -142.9287
453.501956 60.261 -138.6455
456.788219 58.453 -107.4331
460.098294 58.267 -71.6858
463.432356 59.395 -62.7975
466.790578 60.372 -64.2761
470.173135 60.583 -71.0445
473.580203 59.825 -78.3029
477.011961 58.687 -75.9171
480.468586 58.328 -83.5757
483.950259 58.476 -126.2831
487.457163 58.472 141.0049
490.989478 58.299 93.0488
494.547390 58.317 78.7855
498.131084 59.366 84.3250
501.740748 60.927 83.2275
505.376568 61.580 69.7712
509.038735 60.709 55.9626
512.727439 58.595 58.8518
516.442874 56.070 80.2604
520.185232 54.377 114.5366
523.954708 55.087 149.1094
527.751500 57.658 -178.9702
531.575805 60.575 -161.3479
535.427822 62.928 -163.5522
539.307753 64.510 -169.4110
543.215800 65.079 -179.0289
547.152165 64.533 174.5076
551.117055 63.584 -179.2001
555.110677 63.367 -164.0927
559.133237 63.948 -156.9423
563.184947 65.194 -145.7072
567.266018 67.057 -136.0452
571.376661 68.375 -144.0452
575.517092 68.539 -156.7902
579.687526 68.036 -164.9646
583.888181 67.452 -173.4191
588.119275 66.456 175.8325
592.381030 64.720 177.2448
596.673667 63.327 -178.1278
600.997410 63.677 176.0845
605.352485 65.178 155.0013
609.739119 66.782 126.5420
614.157540 68.131 97.1085
618.607979 68.850 68.7264
623.090667 68.593 43.5906
627.605839 67.538 27.6143
632.153730 66.574 33.0038
636.734576 66.520 38.2686
641.348617 66.332 22.4236
645.996094 65.133 4.7391
650.677248 63.718 -17.0568
655.392323 63.436 -135.8209
660.141566 64.337 147.8280
664.925224 64.836 117.6686
669.743546 63.955 101.1235
674.596784 62.343 126.4886
679.485191 61.961 147.0873
684.409020 62.934 153.3435
689.368530 64.909 -175.8491
694.363979 67.592 -171.1996
699.395626 69.775 173.8994
704.463736 70.596 147.1644
709.568570 69.823 114.3203
714.710396 67.744 74.3480
719.889483 64.890 1.8436
725.106099 62.177 -57.5988
730.360516 61.438 -62.2183
735.653010 62.736 -71.7510
740.983855 64.499 -81.2205
746.353329 65.835 -93.0195
751.761713 65.822 -115.7180
757.209288 64.615 -142.6239
762.696339 63.998 166.0809
768.223151 64.155 91.7577
773.790013 64.316 60.7639
779.397214 64.095 44.2830
785.045047 63.508 46.7412
790.733808 63.378 48.2848
796.463791 63.726 41.6327
802.235296 64.277 40.1434
808.048623 65.030 103.1011
813.904077 66.471 113.9512
819.801961 68.113 105.1921
825.742584 68.799 90.0969
831.726255 68.596 78.6460
837.753287 68.289 67.3993
843.823992 67.881 49.4703
849.938689 66.721 23.6366
856.097695 64.537 -4.9695
862.301332 62.304 -31.2087
868.549922 62.080 -57.7307
874.843793 63.153 -22.7158
881.183272 64.266 -38.4364
887.568689 65.434 -64.5348
894.000378 66.269 -88.2400
900.478673 66.183 -108.7368
907.003913 65.142 -119.1348
913.576437 64.260 -123.7529
920.196588 64.165 -132.7092
926.864712 63.970 -148.4106
933.581156 63.284 -162.5010
940.346270 62.696 -177.3311
947.160407 62.292 166.1567
954.023921 61.445 149.0015
960.937172 59.929 140.5195
967.900519 58.296 123.9338
974.914325 57.872 92.0569
981.978956 60.054 41.9890
989.094780 62.590 0.1982
996.262169 64.064 -29.2188
1003.481495 65.227 -35.1045
1010.753136 66.542 -38.5403
1018.077470 66.655 -57.7988
1025.454879 65.597 -75.6118
1032.885748 64.469 -99.8286
1040.370463 63.944 -161.9941
1047.909417 64.696 90.9873
1055.503000 65.508 56.1707
1063.151610 65.442 33.0774
1070.855645 64.332 12.9290
1078.615506 62.337 -0.8247
1086.431599 60.686 123.8696
1094.304330 61.306 131.8589
1102.234110 62.654 117.7805
1110.221353 62.602 88.6460
1118.266475 61.551 -21.1621
1126.369895 61.110 -100.2959
1134.532035 61.627 -116.9185
1142.753322 61.648 -125.2546
1151.034184 61.026 -113.7651
1159.375052 61.265 -83.6199
1167.776361 62.791 -43.6438
1176.238550 64.215 -37.7859
1184.762060 64.612 -44.7114
1193.347334 63.906 -50.2366
1201.994821 62.133 -44.2610
1210.704971 60.286 -16.4314
1219.478238 59.721 -7.3604
1228.315080 59.617 -22.0925
1237.215957 59.635 -117.7480
1246.181334 60.765 -172.5957
1255.211678 61.720 171.5588
1264.307459 61.487 165.3513
1273.469152 60.921 -176.3279
1282.697235 61.635 -135.1238
1291.992188 62.882 -124.6707
1301.354495 63.110 -126.4512
1310.784647 62.240 -116.9355
1320.283132 61.760 -51.2961
1329.850448 62.518 -32.0281
1339.487093 63.034 -28.8000
1349.193569 62.522 -24.0229
1358.970381 61.087 -12.8179
1368.818041 59.145 9.5569
1378.737061 58.171 55.3420
1388.727958 59.408 111.9238
1398.791253 60.984 132.5100
1408.927471 61.648 144.9771
1419.137140 61.917 165.0962
1429.420793 62.512 -172.5203
1439.778965 63.039 -161.6033
1450.212197 63.247 -150.8618
1460.721033 64.148 -93.0630
1471.306019 65.492 -57.6726
1481.967709 65.428 -58.8203
1492.706658 63.851 -52.1716
1503.523426 62.176 -12.0842
1514.418576 61.970 31.2456
1525.392678 62.862 61.6780
1536.446302 64.047 84.2554
1547.580025 64.714 93.2600
1558.794428 64.814 129.3525
1570.090095 65.004 175.6543
1581.467615 65.035 -168.1172
1592.927581 64.785 -144.7305
1604.470591 64.624 -117.9648
1616.097246 64.691 -93.9321
1627.808153 65.338 -66.2778
1639.603922 66.103 -47.4606
1651.485168 65.848 -30.4642
1663.452510 65.229 12.0754
1675.506573 65.447 41.6807
1687.647984 65.516 57.7065
1699.877377 65.513 88.7242
1712.195390 66.377 125.6608
1724.602663 66.704 145.8497
1737.099845 66.324 -175.2645
1749.687587 66.418 -145.6365
1762.366544 66.408 -126.1494
1775.137379 66.197 -98.1575
1788.000756 65.883 -71.0817
1800.957346 65.690 -40.1768
1814.007826 65.798 -14.2130
1827.152874 65.480 10.0660
1840.393177 65.113 52.8390
1853.729425 65.340 91.5448
1867.162312 65.384 118.0314
1880.692540 65.074 146.3795
1894.320813 65.056 -179.3533
1908.047843 65.563 -147.4749
1921.874344 65.927 -121.9347
1935.801038 65.741 -96.8331
1949.828650 65.087 -66.5944
1963.957912 64.132 -35.5631
1978.189561 63.044 3.1733
