* Measurement data measured by REW V5.31
* Source: Scarlett 2i4 USB, MICROPHONE, R, volume: no control. Timing signal peak level -29.0 dBFS, measurement signal peak level -17.1 dBFS
* Format: 512k Log Swept Sine, 1 sweep at -18.0 dBFS using an acoustic timing reference
* Dated: Apr 16, 2024 8:26:09 AM
* REW Settings:
*  C-weighting compensation: Off
*  Target level: 75.0 dB
* Note: ; Delay -4.2660 ms (-1.463 m, -(4 ft 9.6 in)) using estimated IR delay relative to Acoustic reference played from SPEAKER L with no timing offset
* Measurement: rug-p1-rr
* Smoothing: 1/48 octave
* Frequency Step: 96 ppo
* Start Frequency: 10.093689 Hz
*
* Freq(Hz) SPL(dB) Phase(degrees)
10.093689 19.146 -2.7126
10.166832 18.820 -4.7872
10.240505 18.419 -7.3990
10.314712 17.997 -10.3091
10.389457 17.515 -13.2639
10.464743 16.737 -16.1425
10.540575 15.380 -19.9287
10.616956 13.733 -24.8099
10.693891 12.194 -30.7639
10.771383 11.172 -37.8328
10.849437 10.789 -51.6364
10.928057 10.920 -117.0319
11.007246 11.517 173.5422
11.087009 12.597 156.7517
11.167350 14.268 147.2596
11.248273 16.464 140.5253
11.329783 18.774 135.0588
11.411883 20.803 130.0151
11.494578 22.355 124.8395
11.577873 23.577 119.5692
11.661771 24.585 114.4897
11.746277 25.472 109.6012
11.831395 26.279 104.6179
11.917130 26.972 99.2607
12.003487 27.558 93.9026
12.090469 28.062 88.7440
12.178081 28.493 83.5513
12.266329 28.840 77.9117
12.355216 29.109 72.2196
12.444747 29.309 66.7909
12.534926 29.440 61.2798
12.625760 29.499 55.3402
12.717251 29.489 49.3925
12.809406 29.412 43.8240
12.902228 29.267 38.0501
12.995723 29.052 31.9933
13.089895 28.769 26.1064
13.184750 28.417 20.7112
13.280292 27.991 15.2076
13.376526 27.502 9.7502
13.473458 26.956 4.8956
13.571093 26.328 0.8374
13.669434 25.659 -2.6560
13.768489 25.035 -5.4525
13.868261 24.496 -6.9230
13.968756 24.035 -6.6302
14.069979 23.785 -5.4872
14.171936 23.901 -4.5186
14.274632 24.405 -2.8459
14.378072 25.169 -1.7617
14.482261 26.064 -2.6979
14.587206 27.088 -4.9362
14.692910 28.191 -7.9287
14.799381 29.258 -12.0306
14.906624 30.242 -17.2891
15.014643 31.166 -22.9883
15.123446 32.013 -28.9131
15.233036 32.772 -35.4176
15.343421 33.447 -42.3490
15.454606 34.036 -49.1626
15.566596 34.538 -56.1632
15.679398 34.952 -63.6428
15.793018 35.275 -70.9009
15.907460 35.505 -78.1516
16.022732 35.640 -85.9228
16.138840 35.674 -93.4321
16.255788 35.603 -100.8966
16.373585 35.422 -108.9078
16.492234 35.118 -116.6071
16.611744 34.687 -124.3829
16.732119 34.113 -132.7292
16.853367 33.369 -140.7446
16.975494 32.454 -149.0960
17.098505 31.317 -158.1917
17.222408 29.879 -167.1620
17.347209 28.119 -177.2316
17.472914 26.101 170.5399
17.599530 23.734 155.6884
17.727063 21.272 128.5020
17.855521 20.007 70.6387
17.984909 20.768 17.0804
18.115235 22.403 -7.9438
18.246506 23.782 -21.5829
18.378727 24.921 -33.9990
18.511907 25.709 -43.8250
18.646052 26.063 -53.1045
18.781169 26.031 -62.6602
18.917265 25.658 -70.8063
19.054347 24.928 -79.8269
19.192423 23.740 -88.4877
19.331499 21.989 -96.8860
19.471583 19.828 -106.8008
19.612682 17.368 -117.0976
19.754804 14.993 -142.5931
19.897956 14.664 73.7493
20.042144 16.874 53.5901
20.187378 19.347 44.4550
20.333664 20.964 36.3375
20.481010 22.030 28.7761
20.629424 22.619 22.7902
20.778913 22.750 16.6639
20.929486 22.500 12.4663
21.081150 21.885 9.3876
21.233912 21.013 8.7579
21.387782 19.915 12.2228
21.542767 19.102 19.8500
21.698874 19.007 31.8325
21.856113 19.562 43.4233
22.014492 20.672 50.1478
22.174018 21.979 52.8693
22.334700 23.040 51.9418
22.496546 23.850 48.9745
22.659566 24.363 44.9170
22.823766 24.584 39.7976
22.989157 24.527 34.8281
23.155745 24.189 29.4536
23.323542 23.573 25.0508
23.492554 22.683 21.2715
23.662790 21.539 19.6382
23.834261 20.246 20.8505
24.006973 19.135 26.1614
24.180938 18.475 36.0710
24.356163 18.741 46.3630
24.532658 19.716 54.1078
24.710431 20.924 57.1001
24.889493 22.167 57.1174
25.069853 23.234 55.1111
25.251519 24.154 52.3632
25.434502 24.947 49.4453
25.618811 25.690 46.8925
25.804456 26.434 44.9292
25.991445 27.255 43.3903
26.179790 28.178 42.2340
26.369500 29.203 40.7744
26.560584 30.296 38.9788
26.753053 31.395 36.3927
26.946917 32.450 33.2264
27.142185 33.414 29.4235
27.338869 34.255 25.3804
27.536977 34.959 21.1299
27.736522 35.523 17.1559
27.937512 35.959 13.5680
28.139959 36.291 10.6909
28.343872 36.575 8.7332
28.549264 36.860 7.7454
28.756143 37.233 7.6079
28.964522 37.728 7.8503
29.174411 38.368 8.0718
29.385821 39.100 7.5010
29.598763 39.873 6.0988
29.813248 40.607 3.6208
30.029287 41.254 0.3954
30.246891 41.783 -3.4642
30.466073 42.176 -7.5599
30.686842 42.440 -11.6067
30.909212 42.591 -15.4456
31.133193 42.670 -18.6993
31.358797 42.723 -21.4114
31.586035 42.800 -23.5286
31.814921 42.954 -25.3734
32.045465 43.194 -27.3369
32.277680 43.506 -29.7009
32.511577 43.840 -32.8638
32.747169 44.137 -36.7661
32.984469 44.351 -41.3370
33.223488 44.438 -46.3975
33.464239 44.375 -51.4749
33.706735 44.155 -56.3105
33.950987 43.788 -60.5195
34.197010 43.311 -63.5239
34.444816 42.804 -65.0802
34.694417 42.367 -65.0377
34.945827 42.118 -63.6219
35.199059 42.132 -61.8857
35.454126 42.368 -60.7480
35.711041 42.734 -60.7592
35.969818 43.110 -62.0933
36.230470 43.401 -64.4275
36.493011 43.564 -67.2770
36.757455 43.585 -70.2498
37.023814 43.471 -72.9697
37.292104 43.254 -75.0649
37.562338 42.980 -76.3358
37.834530 42.705 -76.7815
38.108695 42.474 -76.5375
38.384846 42.319 -75.8898
38.662999 42.244 -75.2068
38.943167 42.226 -74.7802
39.225365 42.230 -74.7172
39.509608 42.230 -75.0195
39.795911 42.202 -75.6329
40.084289 42.133 -76.4846
40.374756 42.012 -77.5063
40.667328 41.825 -78.6250
40.962020 41.558 -79.7286
41.258848 41.201 -80.6479
41.557827 40.744 -81.1515
41.858972 40.193 -80.9528
42.162299 39.563 -79.7202
42.467824 38.889 -77.0708
42.775564 38.234 -72.5231
43.085533 37.720 -65.4515
43.397749 37.581 -55.3807
43.712227 38.107 -43.1871
44.028983 39.363 -32.0238
44.348036 41.066 -24.9955
44.669400 42.860 -22.7225
44.993093 44.511 -24.2266
45.319131 45.910 -28.3108
45.647532 47.016 -34.0118
45.978313 47.823 -40.6024
46.311491 48.341 -47.5144
46.647083 48.591 -54.2781
46.985107 48.604 -60.4954
47.325581 48.423 -65.8458
47.668521 48.103 -70.1266
48.013947 47.700 -73.2988
48.361876 47.263 -75.4976
48.712326 46.818 -76.9556
49.065315 46.369 -77.8729
49.420863 45.912 -78.3354
49.778987 45.446 -78.3539
50.139706 44.976 -77.9694
50.503039 44.500 -77.2852
50.869005 43.999 -76.3591
51.237623 43.443 -75.0392
51.608912 42.821 -72.9469
51.982891 42.157 -69.7045
52.359580 41.492 -65.1855
52.739000 40.860 -59.1998
53.121168 40.377 -50.3407
53.506106 40.497 -35.6337
53.893833 41.830 -16.4240
54.284370 44.139 -3.2544
54.677737 46.574 -0.3940
55.073955 48.624 -4.4266
55.473043 50.141 -12.0289
55.875024 51.122 -21.1226
56.279917 51.605 -30.3998
56.687745 51.660 -38.7988
57.098527 51.392 -45.4417
57.512287 50.950 -49.8461
57.929045 50.487 -52.2177
58.348822 50.098 -53.3959
58.771642 49.769 -54.3030
59.197525 49.427 -55.2034
59.626495 49.022 -55.7523
60.058573 48.562 -55.5221
60.493782 48.090 -54.3456
60.932145 47.644 -52.3197
61.373685 47.251 -49.5917
61.818424 46.925 -46.4009
62.266386 46.653 -43.1233
62.717593 46.380 -39.8667
63.172071 46.064 -35.9427
63.629842 45.778 -30.1466
64.090930 45.707 -22.3494
64.555359 45.935 -14.6096
65.023154 46.292 -8.7944
65.494339 46.567 -4.0507
65.968938 46.792 2.4426
66.446976 47.347 13.1633
66.928478 48.692 27.2529
67.413469 50.797 39.2312
67.901975 53.189 44.9003
68.394021 55.429 44.1801
68.889632 57.282 38.9624
69.388835 58.636 31.1288
69.891655 59.471 22.3033
70.398118 59.826 14.0643
70.908252 59.798 7.5327
71.422083 59.538 3.5588
71.939636 59.207 2.3330
72.460941 58.960 3.7069
72.986023 58.954 7.4994
73.514909 59.346 12.8138
74.047629 60.143 17.6191
74.584208 61.177 20.4573
75.124676 62.292 21.6628
75.669061 63.464 22.0344
76.217390 64.710 21.4410
76.769692 65.960 19.0187
77.325997 67.074 14.4180
77.886333 67.928 8.2421
78.450730 68.483 1.6040
79.019216 68.777 -4.4403
79.591822 68.910 -9.1810
80.168577 68.993 -12.5336
80.749512 69.111 -14.7723
81.334656 69.316 -16.1924
81.924040 69.659 -17.0560
82.517696 70.173 -17.8766
83.115653 70.843 -19.3143
83.717943 71.615 -21.8213
84.324598 72.429 -25.7053
84.935649 73.199 -31.3290
85.551128 73.804 -38.7987
86.171066 74.133 -47.6072
86.795497 74.134 -56.7432
87.424453 73.836 -65.2295
88.057967 73.308 -72.7338
88.696071 72.572 -79.4583
89.338800 71.573 -85.1444
89.986185 70.282 -88.1371
90.638262 68.894 -85.6016
91.295065 68.003 -75.9677
91.956626 68.294 -63.2532
92.622982 69.659 -55.3491
93.294166 71.321 -56.0220
93.970214 72.653 -63.7731
94.651161 73.380 -75.4891
95.337042 73.448 -88.4270
96.027894 72.926 -100.6471
96.723752 71.933 -111.0988
97.424652 70.574 -119.4532
98.130631 68.917 -125.5498
98.841726 67.010 -129.0945
99.557974 64.897 -130.0116
100.279412 62.577 -128.1461
101.006078 60.050 -121.4791
101.738010 57.658 -103.3414
102.475245 56.683 -66.0031
103.217823 57.863 -36.4670
103.965782 59.750 -26.0796
104.719161 61.407 -22.1097
105.477999 62.853 -18.4651
106.242336 64.309 -14.3120
107.012212 65.890 -10.7697
107.787666 67.585 -8.8942
108.568740 69.306 -9.5208
109.355474 70.910 -13.2651
110.147909 72.220 -20.2897
110.946086 73.074 -29.7673
111.750047 73.404 -39.7665
112.559834 73.283 -48.2164
113.375489 72.901 -53.9243
114.197055 72.473 -56.9381
115.024574 72.171 -58.0131
115.858089 72.088 -58.4747
116.697645 72.177 -59.7933
117.543284 72.283 -62.9143
118.395051 72.203 -67.8210
119.252990 71.786 -73.1537
120.117147 71.024 -77.0137
120.987565 70.021 -78.3762
121.864291 68.898 -77.0708
122.747370 67.776 -72.7449
123.636848 66.887 -64.6432
124.532771 66.749 -50.8129
125.435187 67.919 -32.9939
126.344142 69.962 -22.8497
127.259684 71.897 -24.5405
128.181860 73.195 -32.9431
129.110718 73.806 -42.7675
130.046308 73.902 -51.5969
130.988677 73.569 -60.0775
131.937875 72.695 -67.6899
132.893951 71.316 -69.3152
133.856956 70.064 -59.7003
134.826938 69.731 -47.6937
135.803950 70.022 -43.5101
136.788041 70.249 -43.0039
137.779264 70.445 -38.7126
138.777669 71.123 -29.7612
139.783309 72.185 -26.1530
140.796237 73.059 -28.5149
141.816504 73.691 -30.1552
142.844165 74.425 -29.3591
143.879273 75.294 -30.8779
144.921881 75.942 -36.7819
145.972045 76.113 -44.4388
147.029819 75.799 -51.0804
148.095257 75.132 -54.8782
149.168417 74.376 -54.4338
150.249353 73.910 -50.1323
151.338121 73.984 -45.0326
152.434780 74.428 -43.3370
153.539385 74.763 -46.6244
154.651995 74.576 -52.6804
155.772667 73.754 -56.6617
156.901460 72.810 -51.0902
158.038432 73.158 -29.0603
159.183644 75.148 -10.6359
160.337154 77.243 -12.3777
161.499023 78.587 -22.7706
162.669312 79.207 -33.4406
163.848081 79.404 -41.9009
165.035392 79.361 -49.7625
166.231306 78.979 -58.4258
167.435887 78.121 -65.6243
168.649196 76.913 -68.0485
169.871298 75.778 -64.0170
171.102255 75.316 -55.0013
172.342133 75.695 -48.5992
173.590995 76.347 -49.2404
174.848907 76.708 -54.6298
176.115934 76.491 -62.6371
177.392143 75.503 -70.4719
178.677599 73.902 -69.8073
179.972371 72.991 -44.8340
181.276525 74.274 -16.3939
182.590129 76.544 -10.9875
183.913252 78.557 -15.6753
185.245964 80.127 -23.3788
186.588332 81.258 -33.4720
187.940428 81.766 -46.7976
189.302322 81.531 -59.8206
190.674085 80.756 -68.7380
192.055788 79.761 -74.0452
193.447503 78.725 -76.9999
194.849303 77.854 -75.9370
196.261262 77.599 -70.5203
197.683452 78.108 -67.9498
199.115948 78.863 -72.3435
200.558824 79.434 -80.9207
202.012156 79.731 -91.9396
203.476019 79.722 -106.2168
204.950490 79.306 -124.4296
206.435646 78.397 -147.4415
207.931564 76.942 -177.5756
209.438322 75.074 136.4659
210.955998 73.196 45.0044
212.484672 71.740 -25.2700
214.024424 70.786 -62.2129
215.575333 69.931 -93.2965
217.137481 68.710 -126.0414
218.710948 67.744 -160.9764
220.295818 68.379 157.1697
221.892172 69.967 118.3872
223.500094 72.151 97.3953
225.119668 74.834 85.3121
226.750978 76.995 64.3403
228.394109 78.013 37.7479
230.049147 77.742 11.5234
231.716178 76.205 -8.0731
233.395289 73.795 -13.1906
235.086567 71.577 -9.8796
236.790102 71.187 0.1505
238.505980 73.305 43.0332
240.234293 75.748 39.9031
241.975130 76.806 12.0393
243.728581 76.065 -18.0294
245.494739 74.030 -13.4451
247.273695 72.611 58.7936
249.065542 73.077 49.6296
250.870374 73.694 31.4974
252.688284 73.243 12.5977
254.519367 71.857 -1.0360
256.363720 70.582 -11.4042
258.221437 70.470 93.5341
260.092616 71.299 100.7018
261.977354 72.584 93.9823
263.875750 74.095 89.9147
265.787903 75.266 80.9647
267.713911 76.214 75.6122
269.653877 77.634 77.8302
271.607900 79.383 74.9443
273.576083 80.630 61.5090
275.558528 80.972 44.3724
277.555338 80.439 28.7944
279.566619 79.237 17.6349
281.592474 77.677 12.1182
283.633009 76.145 11.4999
285.688331 74.807 9.3541
287.758546 73.434 8.2787
289.843763 72.467 23.5995
291.944090 72.637 34.7577
294.059638 73.181 30.0991
296.190515 73.299 19.8527
298.336833 72.519 4.9666
300.498705 70.516 -5.2374
302.676243 67.694 15.1876
304.869559 65.586 47.0392
307.078770 64.911 51.3075
309.303989 64.853 57.8774
311.545334 65.712 85.1562
313.802919 67.135 91.4366
316.076865 68.061 83.3735
318.367288 68.171 72.2073
320.674309 67.442 58.5704
322.998047 66.465 50.1251
325.338624 67.352 162.5297
327.696162 69.925 165.4122
330.070783 71.966 148.3235
332.462612 72.795 129.9973
334.871773 72.648 118.3910
337.298392 72.452 118.3020
339.742595 73.066 122.3651
342.204510 74.141 119.2848
344.684265 74.842 108.6034
347.181989 74.831 95.9712
349.697813 74.214 85.7528
352.231868 73.274 77.6505
354.784285 71.987 67.6704
357.355198 70.081 62.2584
359.944741 68.077 75.7352
362.553049 67.413 90.5355
365.180258 67.965 88.1858
367.826505 68.399 73.8956
370.491927 68.019 50.9354
373.176665 66.559 20.5908
375.880856 63.968 -16.2830
378.604644 60.756 158.2565
381.348169 58.367 -130.9937
384.111575 58.147 -118.3245
386.895006 59.689 -134.5107
389.698607 62.548 -82.0736
392.522524 65.649 -84.9982
395.366904 67.830 -107.4398
398.231895 68.701 -132.0151
401.117648 68.293 -153.4379
404.024312 66.845 -167.8140
406.952038 64.802 -174.0350
409.900981 62.879 -177.1844
412.871292 62.233 -151.3785
415.863128 63.573 -75.2197
418.876643 65.339 -85.4778
421.911996 66.345 -99.1814
424.969344 66.754 -105.9664
428.048847 67.350 -102.5675
431.150666 68.072 -105.6499
434.274961 68.232 -114.6018
437.421897 68.134 -115.7892
440.591636 68.623 -111.7286
443.784345 69.348 -118.4951
447.000189 69.432 -133.0409
450.239337 68.652 -149.1537
453.501956 66.985 -166.6984
456.788219 64.414 -174.0038
460.098294 61.868 -95.2832
463.432356 60.952 -85.1940
466.790578 61.565 -84.0110
470.173135 63.008 -80.2485
473.580203 64.147 -89.9630
477.011961 63.995 -108.7039
480.468586 62.351 -122.6158
483.950259 59.973 -112.4088
487.457163 58.493 -90.2579
490.989478 57.860 -98.0270
494.547390 56.555 -110.8490
498.131084 54.620 -107.3601
501.740748 53.725 -111.2330
505.376568 54.234 -153.6814
509.038735 55.075 17.9619
512.727439 55.726 -62.3679
516.442874 56.188 174.5585
520.185232 56.385 122.9596
523.954708 56.140 99.3619
527.751500 56.336 96.0574
531.575805 57.968 105.4625
535.427822 60.244 110.3948
539.307753 61.749 97.3276
543.215800 61.983 79.9331
547.152165 62.033 86.1527
551.117055 63.465 115.0994
555.110677 64.928 102.8125
559.133237 64.949 80.1831
563.184947 63.588 65.1965
567.266018 61.820 59.3470
571.376661 60.397 47.8544
575.517092 58.828 23.1329
579.687526 57.447 -18.4464
583.888181 58.610 -81.8796
588.119275 61.180 -115.3965
592.381030 63.140 -134.8408
596.673667 64.630 -140.0815
600.997410 65.376 -155.7397
605.352485 65.274 -167.5439
609.739119 65.848 -155.0771
614.157540 67.238 -150.8770
618.607979 67.999 -163.8611
623.090667 68.257 -167.6719
627.605839 68.640 -173.4976
632.153730 68.654 173.2920
636.734576 68.120 161.1865
641.348617 67.023 148.2935
645.996094 65.494 141.4917
650.677248 64.377 141.1611
655.392323 63.730 134.0859
660.141566 63.410 131.8481
664.925224 63.748 114.5874
669.743546 64.267 84.4243
674.596784 65.256 52.7295
679.485191 66.275 18.9438
684.409020 66.997 -1.4299
689.368530 67.985 -9.2314
694.363979 68.630 -37.0454
699.395626 67.844 -66.1333
704.463736 65.536 -43.1514
709.568570 62.861 -24.8152
714.710396 61.694 -17.0125
719.889483 62.756 20.8643
725.106099 64.104 12.1016
730.360516 64.344 -6.6411
735.653010 63.489 -14.8464
740.983855 62.352 -14.1431
746.353329 61.442 -20.6013
751.761713 61.447 -12.0840
757.209288 63.000 24.5239
762.696339 64.791 23.1465
768.223151 66.577 116.5652
773.790013 68.327 93.0364
779.397214 69.182 64.2832
785.045047 68.602 39.9006
790.733808 66.906 24.8181
796.463791 64.770 18.2332
802.235296 63.187 21.4636
808.048623 62.800 27.9470
813.904077 63.258 62.9436
819.801961 64.256 62.0508
825.742584 64.709 38.8560
831.726255 64.235 14.1870
837.753287 63.983 3.8813
843.823992 64.928 -11.7839
849.938689 65.558 -47.0117
856.097695 65.337 -77.5764
862.301332 65.606 -98.9976
868.549922 66.080 -130.3489
874.843793 65.505 -157.8398
881.183272 64.366 -131.9265
887.568689 64.100 -132.3018
894.000378 64.234 -154.7886
900.478673 64.361 -171.7605
907.003913 65.573 175.5908
913.576437 67.396 153.5369
920.196588 68.306 118.2834
926.864712 67.726 79.5259
933.581156 65.830 44.8938
940.346270 63.149 16.1252
947.160407 60.827 -17.3298
954.023921 60.603 -121.9805
960.937172 62.291 150.1465
967.900519 63.718 108.4570
974.914325 64.012 69.8059
981.978956 63.069 30.5901
989.094780 61.751 -24.0776
996.262169 61.545 -103.4241
1003.481495 62.598 -151.4287
1010.753136 63.787 177.9233
1018.077470 64.117 149.5564
1025.454879 63.170 130.3047
1032.885748 61.714 165.9746
1040.370463 61.049 176.3979
1047.909417 60.666 159.5525
1055.503000 59.673 139.3235
1063.151610 58.667 104.6074
1070.855645 58.618 -59.8992
1078.615506 59.155 -85.6084
1086.431599 59.126 -96.7642
1094.304330 59.314 -87.9456
1102.234110 60.651 -70.2031
1110.221353 62.492 -61.0791
1118.266475 63.493 -72.8997
1126.369895 63.208 -87.0525
1134.532035 62.042 -81.5413
1142.753322 62.142 -21.4885
1151.034184 63.824 -17.6626
1159.375052 64.588 -36.0383
1167.776361 63.495 -51.0312
1176.238550 61.548 -48.8115
1184.762060 60.358 -42.2412
1193.347334 60.343 45.4143
1201.994821 61.639 85.6453
1210.704971 63.119 72.1655
1219.478238 63.432 52.5701
1228.315080 62.321 38.1001
1237.215957 60.499 30.8911
1246.181334 58.865 27.7510
1255.211678 58.471 -3.3157
1264.307459 59.313 -93.5491
1273.469152 60.682 -140.4604
1282.697235 61.289 -168.4246
1291.992188 60.379 176.5222
1301.354495 58.803 -162.7078
1310.784647 57.985 -149.0886
1320.283132 57.356 -149.2542
1329.850448 56.129 -137.0012
1339.487093 56.115 -88.1899
1349.193569 58.342 -46.2712
1358.970381 60.395 -49.8677
1368.818041 61.416 -61.9814
1378.737061 61.753 -79.3792
1388.727958 61.562 -108.9541
1398.791253 61.058 167.4355
1408.927471 61.016 107.3755
1419.137140 61.010 90.1023
1429.420793 60.668 83.6519
1439.778965 60.897 90.4780
1450.212197 62.363 114.0007
1460.721033 64.319 122.6582
1471.306019 65.144 117.6917
1481.967709 64.766 125.9966
1492.706658 64.714 143.0054
1503.523426 64.851 141.5493
1514.418576 64.526 131.4556
1525.392678 63.599 117.6772
1536.446302 62.828 -98.7874
1547.580025 62.927 -102.5818
1558.794428 63.572 -105.0776
1570.090095 63.887 -104.2615
1581.467615 64.056 -93.4912
1592.927581 63.781 -90.5486
1604.470591 62.651 -66.1565
1616.097246 61.701 -35.1379
1627.808153 61.065 -20.9829
1639.603922 61.062 -1.8525
1651.485168 61.728 17.5208
1663.452510 62.486 37.2427
1675.506573 62.980 47.8538
1687.647984 63.295 65.3738
1699.877377 63.947 89.5413
1712.195390 64.654 94.5923
1724.602663 64.599 94.1208
1737.099845 63.777 128.2451
1749.687587 63.597 168.3875
1762.366544 63.697 173.9199
1775.137379 63.333 -171.8359
1788.000756 62.862 -157.4988
1800.957346 62.359 -130.6113
1814.007826 62.527 -98.9626
1827.152874 63.240 -82.8892
1840.393177 63.864 -69.7512
1853.729425 64.054 -61.9553
1867.162312 63.430 -56.5168
1880.692540 62.376 -45.9131
1894.320813 61.181 -4.5605
1908.047843 60.488 42.3486
1921.874344 61.266 72.9822
1935.801038 62.769 93.2468
1949.828650 63.565 102.6003
1963.957912 63.250 117.5894
