* Measurement data measured by REW V5.31
* Source: Scarlett 2i4 USB, MICROPHONE, R, volume: no control. Timing signal peak level -28.8 dBFS, measurement signal peak level -21.0 dBFS
* Format: 512k Log Swept Sine, 1 sweep at -18.0 dBFS using an acoustic timing reference
* Dated: Apr 16, 2024 8:24:41 AM
* REW Settings:
*  C-weighting compensation: Off
*  Target level: 75.0 dB
* Note: ; Delay 0.0220 ms (7.5 mm, 0.3 in) using estimated IR delay relative to Acoustic reference played from SPEAKER L with no timing offset
* Measurement: rug-p1-r
* Smoothing: 1/48 octave
* Frequency Step: 96 ppo
* Start Frequency: 10.093689 Hz
*
* Freq(Hz) SPL(dB) Phase(degrees)
10.093689 19.192 -13.3050
10.166832 18.670 -17.8408
10.240505 18.025 -22.3380
10.314712 17.351 -26.6318
10.389457 16.629 -30.3166
10.464743 15.673 -32.7360
10.540575 14.236 -33.7312
10.616956 12.584 -32.8319
10.693891 11.130 -28.8777
10.771383 10.332 -20.2086
10.849437 10.394 -4.5418
10.928057 11.112 15.4612
11.007246 12.207 31.1749
11.087009 13.461 39.6007
11.167350 14.847 42.8953
11.248273 16.437 43.7021
11.329783 18.054 43.0835
11.411883 19.495 41.6006
11.494578 20.647 39.3931
11.577873 21.582 36.5266
11.661771 22.364 33.4940
11.746277 23.040 30.6006
11.831395 23.631 27.8273
11.917130 24.116 24.7914
12.003487 24.509 21.8064
12.090469 24.833 19.1873
12.178081 25.092 16.9824
12.266329 25.276 14.8474
12.355216 25.410 12.9546
12.444747 25.521 11.5336
12.534926 25.607 10.6705
12.625760 25.670 10.2035
12.717251 25.746 10.0584
12.809406 25.874 10.1838
12.902228 26.055 10.7713
12.995723 26.282 11.5907
13.089895 26.564 12.2523
13.184750 26.909 12.5732
13.280292 27.319 12.8135
13.376526 27.755 12.7288
13.473458 28.181 12.0760
13.571093 28.599 10.8837
13.669434 29.000 9.3335
13.768489 29.349 7.5022
13.868261 29.629 5.2949
13.968756 29.845 2.6376
14.069979 29.980 -0.1152
14.171936 30.019 -2.7405
14.274632 29.962 -5.6656
14.378072 29.801 -8.5966
14.482261 29.517 -10.9882
14.587206 29.098 -13.0301
14.692910 28.560 -14.6943
14.799381 27.920 -15.2903
14.906624 27.136 -14.2301
15.014643 26.286 -11.3093
15.123446 25.656 -6.1719
15.233036 25.445 1.5001
15.343421 25.614 11.0780
15.454606 26.155 19.4974
15.566596 27.109 25.1554
15.679398 28.380 28.6422
15.793018 29.666 29.6246
15.907460 30.798 28.4489
16.022732 31.829 26.0573
16.138840 32.742 22.8498
16.255788 33.515 18.7594
16.373585 34.160 14.0479
16.492234 34.694 9.2308
16.611744 35.119 3.9877
16.732119 35.437 -1.5725
16.853367 35.660 -6.9012
16.975494 35.786 -12.4734
17.098505 35.819 -18.0804
17.222408 35.765 -23.2413
17.347209 35.621 -28.4385
17.472914 35.396 -33.3255
17.599530 35.093 -37.5658
17.727063 34.718 -41.4403
17.855521 34.300 -44.5944
17.984909 33.841 -46.7573
18.115235 33.391 -48.0403
18.246506 33.020 -48.3660
18.378727 32.742 -47.4633
18.511907 32.630 -46.0676
18.646052 32.731 -44.3100
18.781169 33.009 -42.5370
18.917265 33.421 -41.5688
19.054347 33.951 -41.2004
19.192423 34.510 -41.5920
19.331499 35.060 -42.7777
19.471583 35.583 -44.4372
19.612682 36.045 -46.4241
19.754804 36.449 -48.7238
19.897956 36.792 -50.9319
20.042144 37.075 -53.1532
20.187378 37.313 -55.1459
20.333664 37.514 -56.7946
20.481010 37.695 -58.1508
20.629424 37.883 -59.0717
20.778913 38.085 -59.6299
20.929486 38.328 -59.9530
21.081150 38.619 -60.0135
21.233912 38.959 -60.1220
21.387782 39.348 -60.2763
21.542767 39.765 -60.6509
21.698874 40.196 -61.3298
21.856113 40.619 -62.2456
22.014492 41.015 -63.4501
22.174018 41.372 -64.8073
22.334700 41.678 -66.2066
22.496546 41.933 -67.5958
22.659566 42.139 -68.7132
22.823766 42.309 -69.5900
22.989157 42.467 -69.9750
23.155745 42.634 -69.9310
23.323542 42.852 -69.4590
23.492554 43.136 -68.6490
23.662790 43.512 -67.8588
23.834261 43.972 -67.1576
24.006973 44.492 -66.9808
24.180938 45.047 -67.2534
24.356163 45.590 -68.1467
24.532658 46.099 -69.4700
24.710431 46.545 -71.1133
24.889493 46.925 -72.8687
25.069853 47.236 -74.4953
25.251519 47.502 -75.8240
25.434502 47.749 -76.6333
25.618811 48.033 -76.9682
25.804456 48.393 -76.7600
25.991445 48.871 -76.5335
26.179790 49.477 -76.3847
26.369500 50.180 -77.0280
26.560584 50.943 -78.4211
26.753053 51.701 -80.8892
26.946917 52.410 -84.1572
27.142185 53.031 -88.2544
27.338869 53.538 -92.7556
27.536977 53.919 -97.6646
27.736522 54.166 -102.4982
27.937512 54.285 -107.1767
28.139959 54.287 -111.3769
28.343872 54.208 -114.8227
28.549264 54.083 -117.3785
28.756143 53.990 -118.8762
28.964522 53.987 -119.5389
29.174411 54.136 -119.5576
29.385821 54.449 -119.7244
29.598763 54.900 -120.3022
29.813248 55.424 -121.7999
30.029287 55.957 -124.1592
30.246891 56.450 -127.3188
30.466073 56.866 -131.0458
30.686842 57.194 -135.0797
30.909212 57.432 -139.3062
31.133193 57.589 -143.4414
31.358797 57.679 -147.4357
31.586035 57.715 -151.2202
31.814921 57.712 -154.7387
32.045465 57.677 -158.0125
32.277680 57.614 -161.0395
32.511577 57.522 -163.7912
32.747169 57.403 -166.1923
32.984469 57.264 -168.1690
33.223488 57.123 -169.5891
33.464239 57.014 -170.4008
33.706735 56.971 -170.6545
33.950987 57.029 -170.4679
34.197010 57.210 -170.1802
34.444816 57.505 -170.0896
34.694417 57.895 -170.3985
34.945827 58.349 -171.2419
35.199059 58.840 -172.6530
35.454126 59.353 -174.6141
35.711041 59.876 -177.1192
35.969818 60.400 179.8173
36.230470 60.908 176.1313
36.493011 61.378 171.8204
36.757455 61.786 166.9329
37.023814 62.108 161.5329
37.292104 62.324 155.7545
37.562338 62.419 149.8455
37.834530 62.391 144.0197
38.108695 62.248 138.4798
38.384846 62.010 133.4391
38.662999 61.706 129.0927
38.943167 61.380 125.5129
39.225365 61.073 122.6269
39.509608 60.815 120.2830
39.795911 60.621 118.2823
40.084289 60.491 116.4335
40.374756 60.417 114.6115
40.667328 60.391 112.7641
40.962020 60.412 110.8650
41.258848 60.479 108.8734
41.557827 60.594 106.7398
41.858972 60.755 104.4226
42.162299 60.968 101.8866
42.467824 61.241 99.0696
42.775564 61.590 95.8256
43.085533 62.018 91.8872
43.397749 62.511 86.9039
43.712227 63.022 80.5594
44.028983 63.489 72.7006
44.348036 63.847 63.3602
44.669400 64.043 52.7077
44.993093 64.034 40.9905
45.319131 63.792 28.4912
45.647532 63.298 15.5131
45.978313 62.547 2.3812
46.311491 61.540 -10.5478
46.647083 60.296 -22.8777
46.985107 58.858 -34.1858
47.325581 57.302 -44.0956
47.668521 55.751 -52.4418
48.013947 54.354 -59.4775
48.361876 53.235 -65.8756
48.712326 52.429 -72.3160
49.065315 51.882 -78.9611
49.420863 51.538 -85.3171
49.778987 51.416 -90.5421
50.139706 51.640 -94.0608
50.503039 52.354 -96.2925
50.869005 53.546 -98.7388
51.237623 55.014 -102.8180
51.608912 56.519 -108.7879
51.982891 57.927 -115.9332
52.359580 59.234 -123.2637
52.739000 60.537 -130.1063
53.121168 61.956 -136.5759
53.506106 63.526 -143.6431
53.893833 65.156 -152.4172
54.284370 66.688 -163.4513
54.677737 67.980 -176.5983
55.073955 68.939 168.7103
55.473043 69.514 153.1844
55.875024 69.683 137.5531
56.279917 69.445 122.4556
56.687745 68.824 108.6785
57.098527 67.889 97.0789
57.512287 66.767 88.3321
57.929045 65.649 82.4921
58.348822 64.701 78.7080
58.771642 63.967 75.5812
59.197525 63.360 72.4163
59.626495 62.792 69.4952
60.058573 62.264 67.3123
60.493782 61.833 65.8895
60.932145 61.533 64.7579
61.373685 61.343 63.5843
61.818424 61.242 62.4359
62.266386 61.249 61.4170
62.717593 61.393 60.2279
63.172071 61.648 58.2979
63.629842 61.938 55.3953
64.090930 62.199 51.8662
64.555359 62.437 48.3317
65.023154 62.723 45.1695
65.494339 63.139 42.2622
65.968938 63.740 39.1799
66.446976 64.550 35.5735
66.928478 65.584 31.0079
67.413469 66.810 24.7099
67.901975 68.114 15.8949
68.394021 69.321 4.2192
68.889632 70.281 -9.8684
69.388835 70.897 -25.4167
69.891655 71.133 -41.5197
70.398118 71.015 -56.9903
70.908252 70.624 -71.0524
71.422083 70.103 -83.1145
71.939636 69.608 -93.3489
72.460941 69.238 -102.5877
72.986023 68.983 -111.5911
73.514909 68.780 -120.5803
74.047629 68.605 -129.3298
74.584208 68.487 -137.7990
75.124676 68.443 -146.5369
75.669061 68.410 -156.2683
76.217390 68.245 -167.2744
76.769692 67.807 -179.0813
77.325997 67.005 169.1648
77.886333 65.809 158.4630
78.450730 64.217 149.4794
79.019216 62.203 143.0408
79.591822 59.757 141.9546
80.168577 57.380 156.9540
80.749512 56.886 -162.7175
81.334656 58.766 -141.5089
81.924040 61.138 -137.9395
82.517696 63.231 -139.9620
83.115653 64.978 -144.2446
83.717943 66.448 -149.3438
84.324598 67.775 -154.2085
84.935649 69.094 -158.8196
85.551128 70.437 -164.1166
86.171066 71.731 -170.8596
86.795497 72.893 -179.0095
87.424453 73.884 171.8330
88.057967 74.689 162.0664
88.696071 75.323 152.2003
89.338800 75.849 142.7441
89.986185 76.358 133.6631
90.638262 76.884 124.3043
91.295065 77.392 114.2878
91.956626 77.884 103.8035
92.622982 78.409 92.4397
93.294166 78.894 78.6932
93.970214 79.081 61.6602
94.651161 78.675 42.2970
95.337042 77.489 23.0482
96.027894 75.498 7.4530
96.723752 72.923 -0.5123
97.424652 70.313 -0.7167
98.130631 68.217 0.3804
98.841726 66.634 -0.1105
99.557974 65.308 -0.6604
100.279412 64.093 -0.5779
101.006078 62.975 1.0376
101.738010 62.114 4.5798
102.475245 61.658 7.6959
103.217823 61.495 7.9080
103.965782 61.370 4.7804
104.719161 61.070 -0.9800
105.477999 60.498 -8.3397
106.242336 59.670 -16.5128
107.012212 58.703 -25.3760
107.787666 57.824 -35.7966
108.568740 57.371 -49.8936
109.355474 57.661 -70.3789
110.147909 58.672 -97.9183
110.946086 60.021 -128.8002
111.750047 61.333 -157.8857
112.559834 62.429 177.1764
113.375489 63.260 156.3889
114.197055 63.806 138.8359
115.024574 64.045 123.8285
115.858089 63.994 111.2220
116.697645 63.702 100.9000
117.543284 63.216 92.6030
118.395051 62.560 86.3331
119.252990 61.787 82.5663
120.117147 61.001 81.4965
120.987565 60.297 82.5430
121.864291 59.735 85.4419
122.747370 59.471 91.2761
123.636848 59.878 100.9009
124.532771 61.172 110.7128
125.435187 62.959 114.4459
126.344142 64.605 110.0835
127.259684 65.665 99.6901
128.181860 65.911 86.5273
129.110718 65.276 74.5422
130.046308 63.991 70.0341
130.988677 63.023 81.1265
131.937875 63.494 95.5167
132.893951 64.739 96.4119
133.856956 65.725 90.0487
134.826938 66.194 82.1479
135.803950 66.204 74.7461
136.788041 65.816 68.3428
137.779264 65.075 64.1432
138.777669 64.122 63.5800
139.783309 63.174 66.5649
140.796237 62.519 74.1044
141.816504 62.636 86.7219
142.844165 63.698 98.5553
143.879273 65.231 104.0630
144.921881 66.758 104.4341
145.972045 68.201 103.5140
147.029819 69.634 101.8936
148.095257 70.981 97.8474
149.168417 72.122 91.7134
150.249353 73.076 85.1882
151.338121 73.960 79.0205
152.434780 74.825 72.2565
153.539385 75.556 63.4619
154.651995 75.958 52.7218
155.772667 75.988 42.6962
156.901460 75.992 37.0922
158.038432 76.443 33.8887
159.183644 77.119 25.0999
160.337154 77.372 10.7748
161.499023 76.973 -3.6560
162.669312 76.102 -15.6927
163.848081 74.917 -26.5161
165.035392 73.385 -35.7964
166.231306 71.578 -39.1663
167.435887 69.999 -35.6334
168.649196 68.937 -36.9846
169.871298 67.755 -44.5455
171.102255 65.901 -50.3459
172.342133 63.607 -46.4978
173.590995 62.699 -8.2139
174.848907 64.869 42.2788
176.115934 67.873 44.1676
177.392143 70.291 33.9418
178.677599 71.978 20.2958
179.972371 72.978 5.1593
181.276525 73.348 -9.9496
182.590129 73.192 -23.7280
183.913252 72.625 -35.5083
185.245964 71.803 -44.3276
186.588332 70.950 -50.7253
187.940428 70.172 -56.7015
189.302322 69.423 -63.0515
190.674085 68.572 -70.0892
192.055788 67.614 -75.1018
193.447503 66.807 -79.0757
194.849303 66.118 -88.7212
196.261262 64.974 -105.7452
197.683452 62.898 -125.3130
199.115948 60.600 -132.6514
200.558824 61.382 15.7140
202.012156 64.882 13.0270
203.476019 67.964 -4.8274
204.950490 69.830 -32.3700
206.435646 70.525 -62.2579
207.931564 70.266 -91.2621
209.438322 69.279 -118.6033
210.955998 67.811 -144.3051
212.484672 66.208 -170.9395
214.024424 64.521 155.6638
215.575333 62.398 117.9591
217.137481 60.672 170.8143
218.710948 61.620 -148.5381
220.295818 64.333 -177.5079
221.892172 66.895 153.5845
223.500094 68.813 124.7798
225.119668 70.015 96.0292
226.750978 70.172 66.0750
228.394109 69.005 41.5737
230.049147 66.937 33.9163
231.716178 65.083 35.9335
233.395289 64.103 35.6948
235.086567 64.143 39.4622
236.790102 65.493 48.0571
238.505980 67.547 49.8850
240.234293 69.011 34.1438
241.975130 69.108 9.3789
243.728581 67.889 -7.2017
245.494739 66.937 55.0603
247.273695 68.243 71.3440
249.065542 70.772 64.0183
250.870374 73.444 56.1309
252.688284 75.841 43.7123
254.519367 77.614 24.4655
256.363720 78.573 0.8458
258.221437 78.661 -24.9449
260.092616 77.729 -51.5676
261.977354 75.630 -74.0920
263.875750 72.502 -83.0127
265.787903 69.122 -56.5116
267.713911 67.041 -38.2966
269.653877 66.321 -40.2740
271.607900 66.602 -23.4775
273.576083 68.146 -6.7828
275.558528 70.106 -8.9758
277.555338 71.945 -15.5740
279.566619 73.403 -27.0891
281.592474 74.244 -43.0294
283.633009 74.232 -61.8333
285.688331 73.248 -78.0107
287.758546 71.580 -86.0649
289.843763 69.714 -89.5630
291.944090 67.983 -87.6367
294.059638 67.129 -71.9912
296.190515 67.925 -58.7275
298.336833 69.780 -53.7123
300.498705 71.729 -57.2751
302.676243 73.144 -69.9250
304.869559 73.907 -85.1521
307.078770 74.079 -101.6931
309.303989 73.524 -119.2234
311.545334 72.281 -131.5781
313.802919 70.893 -136.0654
316.076865 69.757 -142.9668
318.367288 68.351 -154.8442
320.674309 66.516 -156.1006
322.998047 65.919 -126.8149
325.338624 67.602 -106.9492
327.696162 69.560 -117.6167
330.070783 70.669 -137.1558
332.462612 70.781 -158.6816
334.871773 69.893 -179.9573
337.298392 67.979 164.5830
339.742595 65.558 172.2725
342.204510 64.444 -165.2373
344.684265 65.570 -159.8784
347.181989 67.623 -161.5161
349.697813 69.362 -174.7100
352.231868 70.177 164.2148
354.784285 70.047 143.1362
357.355198 69.220 125.5388
359.944741 68.066 113.7749
362.553049 67.171 108.0425
365.180258 66.844 100.2881
367.826505 66.819 90.2004
370.491927 67.137 84.3525
373.176665 67.520 70.6265
375.880856 67.139 50.1846
378.604644 65.916 35.1665
381.348169 64.718 32.6526
384.111575 64.676 33.0320
386.895006 65.193 19.7935
389.698607 64.847 -1.6689
392.522524 63.443 -11.4373
395.366904 62.613 5.4919
398.231895 63.251 6.3604
401.117648 63.628 -12.8628
404.024312 63.050 -29.5422
406.952038 62.125 -39.5532
409.900981 61.352 -51.2344
412.871292 60.822 -60.4236
415.863128 61.023 -40.0674
418.876643 61.642 -42.8396
421.911996 61.557 -62.6299
424.969344 60.875 -76.7185
428.048847 59.949 -91.3149
431.150666 59.364 -94.4016
434.274961 60.408 -83.8865
437.421897 62.347 -98.3452
440.591636 64.102 -127.5464
443.784345 65.312 -166.9631
447.000189 65.545 140.2053
450.239337 64.877 67.2117
453.501956 64.350 -30.0447
456.788219 64.764 -97.6423
460.098294 65.762 -142.9177
463.432356 67.175 -176.8865
466.790578 68.828 153.2156
470.173135 69.962 119.0906
473.580203 69.973 82.7952
477.011961 68.782 51.0857
480.468586 66.882 31.7769
483.950259 65.518 27.3162
487.457163 65.180 9.8979
490.989478 65.155 -20.5791
494.547390 66.015 79.0688
498.131084 67.620 67.4446
501.740748 68.695 28.5625
505.376568 68.790 -8.6741
509.038735 67.933 -45.3679
512.727439 66.291 -83.7463
516.442874 65.038 -155.8069
520.185232 65.306 56.3357
523.954708 65.841 11.2520
527.751500 66.042 -19.0801
531.575805 66.430 -44.8967
535.427822 66.709 -76.5364
539.307753 66.116 -115.5491
543.215800 64.516 -144.8000
547.152165 63.937 -83.8667
551.117055 65.870 -110.8037
555.110677 68.019 -172.0771
559.133237 69.591 123.2217
563.184947 70.561 65.4905
567.266018 70.762 16.0435
571.376661 70.619 -25.9500
575.517092 70.277 -66.9641
579.687526 69.412 -107.2053
583.888181 68.420 -143.5298
588.119275 68.183 179.4229
592.381030 68.265 134.6785
596.673667 67.526 87.8787
600.997410 66.040 49.4253
605.352485 64.566 15.9844
609.739119 63.342 -9.3535
614.157540 62.768 -31.2031
618.607979 62.832 -73.5010
623.090667 63.493 -151.9482
627.605839 64.546 81.2051
632.153730 65.316 11.4131
636.734576 65.790 -40.1660
641.348617 66.709 -88.4717
645.996094 67.933 -137.9336
650.677248 68.802 172.5088
655.392323 68.752 127.2446
660.141566 68.005 89.4800
664.925224 66.780 53.8813
669.743546 65.213 24.2329
674.596784 64.786 -2.7891
679.485191 66.003 141.1299
684.409020 67.005 94.6431
689.368530 66.707 55.8462
694.363979 65.843 32.2803
699.395626 65.457 10.8896
704.463736 65.356 15.4438
709.568570 65.932 36.9941
714.710396 66.946 22.1216
719.889483 67.176 -9.0630
725.106099 66.431 -34.4995
730.360516 66.108 -32.5078
735.653010 66.962 -51.1572
740.983855 67.766 -100.5815
746.353329 67.949 -165.2021
751.761713 67.167 131.6626
757.209288 65.840 91.2202
762.696339 65.012 62.2500
768.223151 64.689 37.8618
773.790013 65.438 26.3311
779.397214 67.667 26.1826
785.045047 70.356 63.7515
790.733808 71.901 34.1216
796.463791 71.288 -5.7119
802.235296 68.959 -29.9312
808.048623 66.549 -43.2070
813.904077 65.537 -51.3130
819.801961 65.566 -69.3276
825.742584 65.945 -31.4663
831.726255 66.669 -25.7476
837.753287 67.042 -91.3594
843.823992 66.691 172.5215
849.938689 66.246 98.9707
856.097695 67.110 57.7979
862.301332 68.229 13.1509
868.549922 68.912 -54.9849
874.843793 69.990 124.6377
881.183272 70.866 70.7539
887.568689 70.667 30.4575
894.000378 69.707 1.1343
900.478673 68.735 -14.5840
907.003913 68.868 -1.3184
913.576437 69.512 -20.2383
920.196588 68.750 -53.2168
926.864712 66.932 -57.4614
933.581156 65.436 -32.1128
940.346270 65.025 -17.2480
947.160407 66.587 75.7500
954.023921 68.839 60.5469
960.937172 70.326 29.2842
967.900519 70.387 -0.7148
974.914325 69.595 -12.9795
981.978956 69.635 -15.7393
989.094780 69.878 -32.5107
996.262169 69.441 -50.4751
1003.481495 68.665 -66.7905
1010.753136 67.984 -42.1675
1018.077470 68.320 -22.4419
1025.454879 69.094 -41.0781
1032.885748 69.347 -52.9009
1040.370463 69.445 -61.8501
1047.909417 69.859 -74.9932
1055.503000 70.565 -91.1323
1063.151610 70.638 -98.3599
1070.855645 69.934 -59.0044
1078.615506 68.575 -95.3613
1086.431599 66.793 -111.9097
1094.304330 67.155 -14.5908
1102.234110 69.704 16.4526
1110.221353 71.720 -8.8784
1118.266475 72.064 -50.3052
1126.369895 70.980 -85.1201
1134.532035 69.312 -114.6914
1142.753322 67.511 -114.0312
1151.034184 66.715 -63.3477
1159.375052 67.089 -83.5146
1167.776361 67.929 -58.7085
1176.238550 68.643 -67.9556
1184.762060 68.165 -98.7759
1193.347334 67.167 -125.9004
1201.994821 66.830 -166.6372
1210.704971 66.629 85.5029
1219.478238 66.064 -21.2671
1228.315080 65.750 -32.7266
1237.215957 66.335 -34.7183
1246.181334 67.010 -61.8657
1255.211678 66.676 -74.7949
1264.307459 66.273 -62.6011
1273.469152 65.836 -82.8716
1282.697235 64.394 -91.4209
1291.992188 62.548 -88.3462
1301.354495 61.314 -81.0049
1310.784647 61.289 -61.6978
1320.283132 62.075 -59.5898
1329.850448 62.833 -60.1851
1339.487093 63.600 -69.1460
1349.193569 64.489 -75.1084
1358.970381 65.770 -79.5063
1368.818041 67.195 -93.4136
1378.737061 68.400 -109.4600
1388.727958 69.360 -126.0654
1398.791253 69.749 -161.0386
1408.927471 69.463 154.4302
1419.137140 69.298 -82.1885
1429.420793 68.674 -127.8193
1439.778965 67.420 -143.7769
1450.212197 66.596 -80.2056
1460.721033 66.245 -99.7847
1471.306019 66.390 -106.9570
1481.967709 66.545 -129.0371
1492.706658 66.203 -158.8306
1503.523426 65.926 169.4868
1514.418576 66.075 113.6167
1525.392678 66.011 30.5044
1536.446302 66.711 -17.4849
1547.580025 67.899 -53.3740
1558.794428 68.093 -86.9731
1570.090095 67.761 -107.1626
1581.467615 68.295 -121.2769
1592.927581 69.235 -137.6387
1604.470591 69.145 -155.7485
1616.097246 67.880 -153.6138
1627.808153 66.801 -157.3286
1639.603922 66.427 -161.7778
1651.485168 65.699 -176.9556
1663.452510 64.576 171.1313
1675.506573 63.999 165.6064
1687.647984 64.621 -175.3140
1699.877377 66.829 -154.5815
1712.195390 68.809 -177.7490
1724.602663 69.509 148.4648
1737.099845 69.361 113.6890
1749.687587 68.597 73.2725
1762.366544 66.941 27.9507
1775.137379 64.925 138.6118
1788.000756 63.566 101.8882
1800.957346 63.986 52.6714
1814.007826 65.373 -6.0298
1827.152874 66.347 -73.8481
1840.393177 66.203 -125.9414
1853.729425 65.287 -157.8994
1867.162312 63.816 174.5889
1880.692540 62.799 156.9717
1894.320813 63.542 -177.3076
1908.047843 64.902 178.4336
1921.874344 66.346 154.6602
1935.801038 67.362 178.0596
