* Measurement data measured by REW V5.31
* Source: Scarlett 2i4 USB, MICROPHONE, R, volume: no control. Timing signal peak level -28.0 dBFS, measurement signal peak level -22.0 dBFS
* Format: 512k Log Swept Sine, 1 sweep at -18.0 dBFS using an acoustic timing reference
* Dated: Apr 16, 2024 8:35:52 AM
* REW Settings:
*  C-weighting compensation: Off
*  Target level: 75.0 dB
* Note: ; Delay 2.2773 ms (781 mm, 2 ft 6.75 in) using estimated IR delay relative to Acoustic reference played from SPEAKER L with no timing offset
* Measurement: rug-p2-r
* Smoothing: 1/48 octave
* Frequency Step: 96 ppo
* Start Frequency: 10.093689 Hz
*
* Freq(Hz) SPL(dB) Phase(degrees)
10.093689 22.618 39.0536
10.166832 23.000 35.5642
10.240505 23.460 32.0091
10.314712 23.932 28.4750
10.389457 24.402 25.0104
10.464743 24.843 21.6079
10.540575 25.238 18.1253
10.616956 25.603 14.6207
10.693891 25.943 11.1700
10.771383 26.261 7.8262
10.849437 26.553 4.4824
10.928057 26.821 1.0937
11.007246 27.067 -2.2646
11.087009 27.294 -5.5274
11.167350 27.502 -8.7180
11.248273 27.689 -11.9432
11.329783 27.858 -15.1510
11.411883 28.011 -18.2852
11.494578 28.149 -21.3347
11.577873 28.271 -24.3968
11.661771 28.377 -27.4470
11.746277 28.470 -30.4477
11.831395 28.550 -33.3899
11.917130 28.617 -36.3453
12.003487 28.671 -39.2994
12.090469 28.710 -42.2287
12.178081 28.735 -45.1452
12.266329 28.747 -48.1069
12.355216 28.742 -51.0856
12.444747 28.716 -54.0525
12.534926 28.669 -57.0650
12.625760 28.601 -60.1669
12.717251 28.504 -63.2889
12.809406 28.369 -66.3768
12.902228 28.201 -69.5885
12.995723 27.992 -72.8955
13.089895 27.725 -76.1583
13.184750 27.394 -79.3453
13.280292 27.004 -82.6947
13.376526 26.524 -86.0303
13.473458 25.926 -89.0760
13.571093 25.222 -92.0106
13.669434 24.376 -94.8390
13.768489 23.289 -97.0917
13.868261 21.792 -98.2068
13.968756 19.890 -97.8893
14.069979 18.066 -94.4336
14.171936 16.907 -83.7324
14.274632 16.513 -58.0629
14.378072 16.847 -24.3672
14.482261 17.982 -5.9974
14.587206 19.991 0.9341
14.692910 22.366 2.7682
14.799381 24.459 1.9099
14.906624 26.041 -0.5657
15.014643 27.318 -3.8044
15.123446 28.411 -7.3820
15.233036 29.363 -11.3683
15.343421 30.159 -15.7101
15.454606 30.834 -19.9955
15.566596 31.407 -24.2980
15.679398 31.871 -28.8318
15.793018 32.240 -33.1678
15.907460 32.523 -37.3077
16.022732 32.715 -41.5345
16.138840 32.828 -45.4341
16.255788 32.862 -48.9665
16.373585 32.820 -52.3538
16.492234 32.716 -55.2355
16.611744 32.551 -57.5425
16.732119 32.340 -59.3673
16.853367 32.117 -60.5098
16.975494 31.886 -60.8136
17.098505 31.685 -60.4091
17.222408 31.572 -59.4261
17.347209 31.551 -57.7156
17.472914 31.640 -55.7785
17.599530 31.861 -53.9472
17.727063 32.196 -52.1943
17.855521 32.595 -50.9693
17.984909 33.047 -50.2890
18.115235 33.521 -50.0665
18.246506 33.977 -50.3170
18.378727 34.411 -50.9806
18.511907 34.814 -51.8381
18.646052 35.175 -52.8749
18.781169 35.502 -54.0133
18.917265 35.801 -55.0776
19.054347 36.073 -56.1233
19.192423 36.333 -57.0740
19.331499 36.588 -57.8952
19.471583 36.843 -58.6404
19.612682 37.109 -59.3271
19.754804 37.384 -59.9573
19.897956 37.669 -60.6249
20.042144 37.964 -61.3187
20.187378 38.262 -62.0694
20.333664 38.559 -62.9035
20.481010 38.852 -63.7905
20.629424 39.135 -64.7192
20.778913 39.409 -65.6841
20.929486 39.673 -66.6346
21.081150 39.928 -67.5782
21.233912 40.176 -68.4915
21.387782 40.420 -69.3712
21.542767 40.660 -70.2228
21.698874 40.896 -71.0539
21.856113 41.126 -71.8487
22.014492 41.347 -72.6133
22.174018 41.558 -73.3096
22.334700 41.757 -73.8824
22.496546 41.948 -74.3139
22.659566 42.139 -74.4850
22.823766 42.340 -74.4202
22.989157 42.574 -74.0582
23.155745 42.854 -73.4609
23.323542 43.203 -72.7843
23.492554 43.624 -72.0974
23.662790 44.115 -71.7417
23.834261 44.660 -71.7085
24.006973 45.225 -72.2725
24.180938 45.791 -73.3105
24.356163 46.319 -74.8676
24.532658 46.796 -76.7742
24.710431 47.201 -78.8796
24.889493 47.534 -81.0158
25.069853 47.796 -82.9457
25.251519 48.010 -84.5214
25.434502 48.201 -85.5312
25.618811 48.423 -85.9976
25.804456 48.712 -85.8498
25.991445 49.118 -85.5501
26.179790 49.652 -85.2091
26.369500 50.294 -85.5191
26.560584 51.010 -86.4972
26.753053 51.738 -88.4862
26.946917 52.435 -91.2727
27.142185 53.060 -94.8764
27.338869 53.586 -98.9358
27.536977 53.999 -103.4228
27.736522 54.291 -107.9225
27.937512 54.466 -112.3416
28.139959 54.534 -116.4122
28.343872 54.521 -119.8757
28.549264 54.456 -122.6317
28.756143 54.396 -124.4820
28.964522 54.393 -125.5673
29.174411 54.499 -125.9605
29.385821 54.743 -126.2469
29.598763 55.119 -126.6720
29.813248 55.593 -127.7339
30.029287 56.109 -129.5508
30.246891 56.625 -132.1262
30.466073 57.094 -135.3939
30.686842 57.496 -139.1347
30.909212 57.815 -143.2667
31.133193 58.042 -147.5324
31.358797 58.176 -151.7975
31.586035 58.217 -155.9666
31.814921 58.171 -159.7860
32.045465 58.050 -163.1376
32.277680 57.870 -165.8755
32.511577 57.661 -167.7874
32.747169 57.469 -168.8408
32.984469 57.337 -169.0392
33.223488 57.318 -168.5671
33.464239 57.434 -167.8667
33.706735 57.678 -167.2634
33.950987 58.020 -167.0525
34.197010 58.412 -167.3573
34.444816 58.823 -168.0533
34.694417 59.245 -169.0243
34.945827 59.684 -170.1338
35.199059 60.164 -171.3915
35.454126 60.697 -172.9966
35.711041 61.277 -175.1558
35.969818 61.879 -178.0997
36.230470 62.453 177.9782
36.493011 62.947 173.1557
36.757455 63.318 167.5967
37.023814 63.531 161.4798
37.292104 63.563 155.0981
37.562338 63.401 148.8664
37.834530 63.046 143.1063
38.108695 62.514 138.1558
38.384846 61.834 134.4111
38.662999 61.059 132.2502
38.943167 60.265 131.8255
39.225365 59.531 133.0804
39.509608 58.918 135.8201
39.795911 58.471 139.7743
40.084289 58.226 144.7071
40.374756 58.226 150.3917
40.667328 58.509 156.3726
40.962020 59.066 161.9289
41.258848 59.829 166.5298
41.557827 60.726 170.1552
41.858972 61.726 173.1401
42.162299 62.856 175.7753
42.467824 64.166 177.9439
42.775564 65.668 179.0465
43.085533 67.299 178.3411
43.397749 68.951 175.3994
43.712227 70.518 170.2501
44.028983 71.926 163.2446
44.348036 73.131 154.8378
44.669400 74.112 145.4670
44.993093 74.863 135.5216
45.319131 75.384 125.3459
45.647532 75.685 115.2545
45.978313 75.781 105.5439
46.311491 75.696 96.4967
46.647083 75.464 88.3724
46.985107 75.132 81.3793
47.325581 74.760 75.6225
47.668521 74.414 71.0407
48.013947 74.148 67.3725
48.361876 73.991 64.2085
48.712326 73.938 61.1417
49.065315 73.954 57.9296
49.420863 74.002 54.5617
49.778987 74.066 51.1985
50.139706 74.155 48.0182
50.503039 74.302 45.0479
50.869005 74.535 42.0867
51.237623 74.851 38.8162
51.608912 75.216 35.0548
51.982891 75.603 30.9128
52.359580 76.024 26.6683
52.739000 76.542 22.4026
53.121168 77.219 17.6525
53.506106 78.043 11.5079
53.893833 78.911 3.2073
54.284370 79.675 -7.4769
54.677737 80.206 -20.2498
55.073955 80.415 -34.5209
55.473043 80.247 -49.5851
55.875024 79.676 -64.6911
56.279917 78.697 -79.1111
56.687745 77.335 -91.9294
57.098527 75.673 -102.1910
57.512287 73.871 -109.3583
57.929045 72.138 -113.9417
58.348822 70.605 -117.4316
58.771642 69.221 -121.1233
59.197525 67.839 -124.8135
59.626495 66.404 -127.4590
60.058573 65.001 -128.5681
60.493782 63.748 -129.0719
60.932145 62.617 -130.3086
61.373685 61.462 -132.4200
61.818424 60.174 -134.4896
62.266386 58.764 -135.8964
62.717593 57.278 -137.2975
63.172071 55.647 -140.2151
63.629842 53.671 -145.8026
64.090930 51.345 -155.8298
64.555359 50.136 160.8178
65.023154 52.163 33.2692
65.494339 55.492 17.9448
65.968938 58.476 8.2106
66.446976 61.031 0.0460
66.928478 63.323 -7.6638
67.413469 65.435 -16.0906
67.901975 67.338 -26.1429
68.394021 68.949 -38.1256
68.889632 70.202 -51.5978
69.388835 71.071 -65.7509
69.891655 71.572 -79.8873
70.398118 71.762 -93.2027
70.908252 71.724 -105.3110
71.422083 71.557 -116.0082
71.939636 71.343 -125.4775
72.460941 71.137 -134.0457
72.986023 70.966 -141.9960
73.514909 70.851 -149.5574
74.047629 70.804 -157.0198
74.584208 70.815 -164.7766
75.124676 70.837 -173.1609
75.669061 70.800 177.7722
76.217390 70.641 168.3018
76.769692 70.329 158.8792
77.325997 69.861 149.9866
77.886333 69.267 142.1323
78.450730 68.615 135.8037
79.019216 68.034 131.3411
79.591822 67.695 128.1746
80.168577 67.663 124.5450
80.749512 67.791 118.8439
81.334656 67.831 111.0177
81.924040 67.623 102.3606
82.517696 67.154 94.3152
83.115653 66.515 87.8206
83.717943 65.828 82.9979
84.324598 65.176 79.5271
84.935649 64.610 77.2753
85.551128 64.186 76.2017
86.171066 63.970 76.0566
86.795497 64.016 76.4218
87.424453 64.342 76.5275
88.057967 64.873 75.2748
88.696071 65.477 72.5425
89.338800 66.136 69.5291
89.986185 66.982 66.7837
90.638262 68.081 62.9292
91.295065 69.348 56.8165
91.956626 70.735 48.6046
92.622982 72.211 37.4824
93.294166 73.555 21.5544
93.970214 74.414 0.4347
94.651161 74.499 -24.3628
95.337042 73.638 -50.5044
96.027894 71.742 -75.0006
96.723752 68.806 -92.9534
97.424652 65.060 -94.8684
98.130631 61.400 -77.3115
98.841726 59.347 -65.7682
99.557974 58.986 -65.3971
100.279412 59.106 -70.9943
101.006078 59.085 -79.7142
101.738010 58.913 -90.0170
102.475245 58.763 -102.6366
103.217823 58.730 -119.5052
103.965782 58.782 -141.9070
104.719161 58.821 -169.3215
105.477999 58.788 161.1880
106.242336 58.750 133.7852
107.012212 58.850 110.8760
107.787666 59.115 91.7994
108.568740 59.349 74.6129
109.355474 59.264 58.7064
110.147909 58.719 45.8651
110.946086 57.937 39.5959
111.750047 57.552 40.4362
112.559834 57.912 41.7517
113.375489 58.659 39.4073
114.197055 59.406 34.4740
115.024574 59.983 27.9978
115.858089 60.330 20.9427
116.697645 60.474 14.0726
117.543284 60.436 7.2075
118.395051 60.165 0.1801
119.252990 59.606 -6.1761
120.117147 58.770 -10.9702
120.987565 57.682 -14.4227
121.864291 56.327 -16.8003
122.747370 55.135 -12.8851
123.636848 56.015 31.0693
124.532771 59.174 70.5356
125.435187 62.333 66.8219
126.344142 64.662 53.7577
127.259684 66.177 39.0583
128.181860 67.147 26.1553
129.110718 67.969 16.3251
130.046308 68.833 6.6576
130.988677 69.502 -5.9668
131.937875 69.686 -20.4421
132.893951 69.326 -34.0972
133.856956 68.527 -45.0856
134.826938 67.508 -51.7249
135.803950 66.673 -53.5570
136.788041 66.320 -55.3385
137.779264 66.174 -61.3781
138.777669 65.795 -70.0043
139.783309 65.037 -78.2493
140.796237 63.991 -84.8185
141.816504 62.811 -90.2211
142.844165 61.570 -97.2241
143.879273 60.141 -109.2377
144.921881 58.601 -130.1322
145.972045 58.283 167.2076
147.029819 60.230 75.4684
148.095257 62.796 45.6382
149.168417 64.948 27.4648
150.249353 66.677 14.4435
151.338121 68.160 4.4294
152.434780 69.507 -4.3115
153.539385 70.674 -13.7837
154.651995 71.540 -24.4333
155.772667 72.177 -33.7135
156.901460 72.970 -39.2161
158.038432 74.097 -45.0186
159.183644 75.103 -56.8243
160.337154 75.532 -72.0801
161.499023 75.418 -85.6138
162.669312 75.085 -96.3154
163.848081 74.665 -107.1428
165.035392 73.943 -119.3247
166.231306 72.698 -129.2100
167.435887 71.114 -131.7742
168.649196 69.685 -129.7288
169.871298 68.704 -126.6636
171.102255 68.572 -117.2852
172.342133 69.807 -103.3716
173.590995 71.798 -100.2471
174.848907 73.616 -107.8760
176.115934 74.971 -119.9180
177.392143 75.874 -133.9878
178.677599 76.274 -150.2715
179.972371 76.023 -167.8701
181.276525 75.075 176.3818
182.590129 73.611 165.4004
183.913252 72.054 160.8091
185.245964 71.058 160.6284
186.588332 70.883 155.5034
187.940428 70.897 140.2329
189.302322 70.408 115.5142
190.674085 69.252 79.4436
192.055788 68.153 7.4426
193.447503 68.279 -77.8730
194.849303 69.252 -115.9968
196.261262 70.115 -139.3828
197.683452 70.734 -154.7739
199.115948 71.408 -164.4480
200.558824 72.421 -171.2896
202.012156 73.714 -179.9590
203.476019 75.018 167.6287
204.950490 76.208 152.5164
206.435646 77.216 134.0132
207.931564 77.897 111.1392
209.438322 78.072 83.2993
210.955998 77.506 50.1897
212.484672 76.019 12.2241
214.024424 73.636 -32.9592
215.575333 70.920 -97.1414
217.137481 69.619 -164.3518
218.710948 70.416 153.1846
220.295818 71.293 117.3679
221.892172 71.202 85.7083
223.500094 70.421 61.8020
225.119668 69.483 39.4255
226.750978 68.148 14.8645
228.394109 66.170 -6.4250
230.049147 63.778 -26.3542
231.716178 61.278 -48.1047
233.395289 60.032 -80.7886
235.086567 61.953 138.4175
236.790102 65.188 74.9800
238.505980 67.805 32.5652
240.234293 69.527 -7.3037
241.975130 70.688 -43.4688
243.728581 71.405 -79.0327
245.494739 71.315 -115.9937
247.273695 70.291 -151.8789
249.065542 68.637 171.9370
250.870374 67.246 120.4128
252.688284 67.565 -44.4395
254.519367 69.179 -86.7551
256.363720 70.865 -115.1257
258.221437 72.260 -138.8262
260.092616 72.990 -163.8938
261.977354 72.658 171.7488
263.875750 71.485 158.6501
265.787903 70.715 158.7742
267.713911 71.476 161.6802
269.653877 73.059 155.6470
271.607900 74.100 137.0508
273.576083 74.072 116.2273
275.558528 73.334 103.4224
277.555338 72.684 96.5759
279.566619 72.470 89.0100
281.592474 72.712 82.1514
283.633009 73.341 73.2092
285.688331 73.968 58.4050
287.758546 74.179 38.9507
289.843763 73.768 16.9043
291.944090 72.601 -5.6147
294.059638 70.787 -24.3047
296.190515 68.929 -42.3384
298.336833 67.681 -70.8530
300.498705 67.154 -119.7988
302.676243 67.142 175.4663
304.869559 67.527 125.3340
307.078770 68.067 91.4111
309.303989 68.250 64.4150
311.545334 67.999 47.1553
313.802919 67.878 37.3691
316.076865 67.683 21.5635
318.367288 66.801 6.5391
320.674309 65.543 3.2202
322.998047 65.111 10.0498
325.338624 66.193 17.0254
327.696162 67.948 14.5571
330.070783 69.453 2.3652
332.462612 70.602 -11.0396
334.871773 71.382 -27.1382
337.298392 71.545 -45.8955
339.742595 71.151 -61.4893
342.204510 70.709 -71.8535
344.684265 70.791 -78.5361
347.181989 71.415 -88.7876
349.697813 71.970 -105.9214
352.231868 72.142 -125.0435
354.784285 71.965 -144.9492
357.355198 71.334 -167.0312
359.944741 70.037 171.2988
362.553049 68.106 154.8242
365.180258 65.864 142.8774
367.826505 63.499 130.8931
370.491927 61.255 130.5093
373.176665 60.861 165.4912
375.880856 62.635 174.1206
378.604644 64.208 155.0610
381.348169 64.547 129.9756
384.111575 63.900 114.0371
386.895006 63.733 120.0747
389.698607 64.813 116.8799
392.522524 65.769 97.1665
395.366904 65.746 74.4897
398.231895 64.924 56.2847
401.117648 63.804 44.4028
404.024312 63.305 47.5205
406.952038 64.071 47.8828
409.900981 65.278 35.1743
412.871292 66.336 18.6699
415.863128 66.918 -2.7583
418.876643 66.747 -26.2588
421.911996 65.801 -48.8276
424.969344 64.104 -66.9268
428.048847 62.539 -66.4697
431.150666 62.990 -44.5981
434.274961 64.587 -54.4082
437.421897 65.532 -80.8145
440.591636 65.647 -107.3101
443.784345 65.348 -133.0718
447.000189 64.705 -163.3994
450.239337 63.582 160.4966
453.501956 62.899 112.9399
456.788219 63.542 -93.9204
460.098294 64.045 -136.7754
463.432356 63.583 -169.4644
466.790578 63.094 174.0986
470.173135 63.951 170.2168
473.580203 65.790 155.7358
477.011961 67.564 133.1968
480.468586 68.539 102.3950
483.950259 68.205 68.5098
487.457163 66.642 41.7905
490.989478 64.549 23.9380
494.547390 62.740 10.2573
498.131084 62.045 33.7070
501.740748 62.737 36.3862
505.376568 63.618 13.1528
509.038735 63.965 -13.1621
512.727439 63.784 -40.4863
516.442874 63.711 -64.5635
520.185232 64.291 -99.4971
523.954708 64.499 -174.2202
527.751500 63.796 77.6714
531.575805 62.749 18.1162
535.427822 61.755 -17.8081
539.307753 60.959 -30.3853
543.215800 61.288 -10.0352
547.152165 62.515 -19.6406
551.117055 63.862 -42.0840
555.110677 64.610 -71.8179
559.133237 64.121 -105.3984
563.184947 62.544 -125.6860
567.266018 61.683 -86.5513
571.376661 62.931 -86.2744
575.517092 64.696 -109.4810
579.687526 65.463 -147.1289
583.888181 64.800 170.6152
588.119275 63.084 136.9048
592.381030 61.570 170.4429
596.673667 61.563 154.2783
600.997410 62.509 110.9102
605.352485 63.197 62.3667
609.739119 63.049 16.3828
614.157540 62.458 -15.0366
618.607979 62.639 -34.7710
623.090667 63.775 -56.3081
627.605839 65.153 -81.4834
632.153730 66.362 -108.2949
636.734576 67.655 -133.0933
641.348617 68.771 -163.1523
645.996094 69.112 162.5742
650.677248 69.100 130.4907
655.392323 69.103 94.3833
660.141566 68.545 52.6069
664.925224 67.070 12.3188
669.743546 65.217 -8.0596
674.596784 64.326 -0.7734
679.485191 64.843 -23.7891
684.409020 66.240 -48.4927
689.368530 68.124 -60.3247
694.363979 69.704 -70.4404
699.395626 70.230 -100.2505
704.463736 70.020 -87.3491
709.568570 69.847 -101.2666
714.710396 69.339 -135.4014
719.889483 68.010 -161.0806
725.106099 66.789 -162.1821
730.360516 67.182 -167.0420
735.653010 68.138 168.8877
740.983855 68.448 140.9214
746.353329 69.157 -145.9600
751.761713 70.796 -155.3145
757.209288 71.440 170.4990
762.696339 70.794 147.0571
768.223151 70.331 135.4639
773.790013 70.661 122.9248
779.397214 71.057 104.9443
785.045047 70.607 82.8125
790.733808 69.719 68.2783
796.463791 69.127 51.4131
802.235296 68.256 27.5605
808.048623 67.017 26.0088
813.904077 66.362 9.3999
819.801961 66.688 -73.2725
825.742584 67.682 129.1577
831.726255 68.419 86.2861
837.753287 68.401 67.9053
843.823992 68.582 66.5244
849.938689 70.038 58.7793
856.097695 71.767 35.4526
862.301332 72.241 0.0522
868.549922 71.798 5.4990
874.843793 71.687 10.6772
881.183272 71.455 -26.4526
887.568689 70.259 -43.5825
894.000378 69.509 19.1572
900.478673 70.890 0.6064
907.003913 72.557 -35.0664
913.576437 73.189 -74.5244
920.196588 72.990 -14.3066
926.864712 72.374 -28.2729
933.581156 71.823 -54.5903
940.346270 72.534 -63.4199
947.160407 73.792 -81.9902
954.023921 73.550 -116.5728
960.937172 71.462 -137.7437
967.900519 69.159 -133.5239
974.914325 68.725 -137.1782
981.978956 69.056 -151.3213
989.094780 69.547 -158.9473
996.262169 70.195 169.5000
1003.481495 70.687 143.5205
1010.753136 71.222 -118.0308
1018.077470 71.238 -153.3525
1025.454879 71.326 -165.9839
1032.885748 71.749 167.4341
1040.370463 71.206 133.8584
1047.909417 70.241 116.7329
1055.503000 70.215 95.2300
1063.151610 69.909 52.6509
1070.855645 68.413 3.3418
1078.615506 66.836 -45.5127
1086.431599 66.807 -101.9297
1094.304330 66.857 -155.5225
1102.234110 66.479 172.2148
1110.221353 67.062 150.1782
1118.266475 68.573 130.7061
1126.369895 70.054 117.7920
1134.532035 70.604 87.3584
1142.753322 69.515 59.1704
1151.034184 67.854 45.4614
1159.375052 67.535 70.9341
1167.776361 68.834 70.1182
1176.238550 70.089 40.5635
1184.762060 70.615 8.4619
1193.347334 70.209 -25.1128
1201.994821 69.093 -53.3813
1210.704971 68.104 -74.3711
1219.478238 66.866 -106.2930
1228.315080 64.273 -142.2476
1237.215957 61.466 -63.3945
1246.181334 60.522 -28.7183
1255.211678 60.406 -58.1284
1264.307459 61.315 -68.0337
1273.469152 63.218 -62.2402
1282.697235 64.684 -78.3037
1291.992188 65.580 -114.7803
1301.354495 66.270 -147.5801
1310.784647 66.935 -167.0151
1320.283132 67.338 151.5215
1329.850448 67.314 101.6221
1339.487093 67.390 56.0259
1349.193569 67.200 10.0283
1358.970381 66.688 -27.4912
1368.818041 67.343 -41.4146
1378.737061 69.052 -61.2588
1388.727958 70.305 -102.0332
1398.791253 70.543 -143.4746
1408.927471 70.434 -178.1309
1419.137140 70.212 144.5098
1429.420793 69.111 104.7285
1439.778965 67.583 68.4658
1450.212197 66.456 23.6611
1460.721033 65.865 -25.7148
1471.306019 66.368 -32.3779
1481.967709 66.970 -87.1709
1492.706658 66.778 -152.4658
1503.523426 66.295 157.9268
1514.418576 65.711 111.8398
1525.392678 64.795 81.7764
1536.446302 64.987 81.5996
1547.580025 66.838 62.7119
1558.794428 68.429 19.4570
1570.090095 68.605 -29.3213
1581.467615 67.679 -65.9541
1592.927581 67.428 -88.2969
1604.470591 67.953 -129.4795
1616.097246 68.160 179.6768
1627.808153 68.153 130.7510
1639.603922 68.196 86.4287
1651.485168 68.254 51.8330
1663.452510 68.224 16.5703
1675.506573 68.210 -16.7715
1687.647984 68.154 -55.9961
1699.877377 67.587 -97.8154
1712.195390 66.997 -141.6572
1724.602663 66.850 162.5146
1737.099845 67.265 89.6650
1749.687587 67.909 14.9648
1762.366544 68.589 -41.1895
1775.137379 69.255 -88.1387
1788.000756 69.527 -135.6016
1800.957346 68.711 176.7656
1814.007826 66.845 138.0791
1827.152874 64.734 119.7979
1840.393177 63.224 130.5303
1853.729425 62.766 138.0752
1867.162312 63.748 112.3369
1880.692540 65.180 82.8730
1894.320813 65.846 53.1787
1908.047843 65.694 67.0547
