* Measurement data measured by REW V5.31
* Source: Scarlett 2i4 USB, MICROPHONE, R, volume: no control. Timing signal peak level -31.0 dBFS, measurement signal peak level -22.9 dBFS
* Format: 512k Log Swept Sine, 1 sweep at -18.0 dBFS using an acoustic timing reference
* Dated: Apr 16, 2024 9:26:46 AM
* REW Settings:
*  C-weighting compensation: Off
*  Target level: 75.0 dB
* Note: ; Delay -3.7330 ms (-1.280 m, -(4 ft 2.4 in)) using IR start time relative to Acoustic reference played from SPEAKER L with no timing offset
* Measurement: couch-p1-rl
* Smoothing: 1/48 octave
* Frequency Step: 96 ppo
* Start Frequency: 10.093689 Hz
*
* Freq(Hz) SPL(dB) Phase(degrees)
10.093689 17.094 49.1914
10.166832 17.267 48.3741
10.240505 17.478 47.6327
10.314712 17.695 46.8964
10.389457 17.917 46.0986
10.464743 18.151 45.1970
10.540575 18.405 44.2778
10.616956 18.669 43.3163
10.693891 18.938 42.2616
10.771383 19.207 41.0645
10.849437 19.476 39.7521
10.928057 19.747 38.3574
11.007246 20.015 36.8603
11.087009 20.278 35.2367
11.167350 20.532 33.4746
11.248273 20.781 31.6013
11.329783 21.022 29.6247
11.411883 21.253 27.5434
11.494578 21.474 25.3427
11.577873 21.684 23.0147
11.661771 21.883 20.5843
11.746277 22.071 18.0675
11.831395 22.246 15.4519
11.917130 22.409 12.6996
12.003487 22.560 9.8476
12.090469 22.698 6.9271
12.178081 22.823 3.9185
12.266329 22.935 0.7660
12.355216 23.034 -2.4764
12.444747 23.119 -5.7603
12.534926 23.190 -9.1391
12.625760 23.246 -12.6573
12.717251 23.289 -16.2382
12.809406 23.316 -19.8219
12.902228 23.327 -23.5266
12.995723 23.323 -27.3349
13.089895 23.302 -31.1497
13.184750 23.264 -34.9457
13.280292 23.209 -38.8612
13.376526 23.135 -42.8082
13.473458 23.042 -46.6697
13.571093 22.929 -50.5431
13.669434 22.796 -54.4549
13.768489 22.643 -58.2865
13.868261 22.468 -61.9782
13.968756 22.272 -65.6516
14.069979 22.055 -69.2345
14.171936 21.817 -72.6155
14.274632 21.559 -75.8426
14.378072 21.281 -78.9249
14.482261 20.990 -81.8012
14.587206 20.683 -84.4090
14.692910 20.364 -86.7827
14.799381 20.041 -88.9603
14.906624 19.716 -90.8743
15.014643 19.389 -92.4976
15.123446 19.064 -93.9558
15.233036 18.745 -95.2741
15.343421 18.430 -96.3646
15.454606 18.108 -97.3439
15.566596 17.775 -98.3006
15.679398 17.428 -99.1601
15.793018 17.039 -99.8767
15.907460 16.594 -100.4788
16.022732 16.088 -100.9321
16.138840 15.490 -100.8993
16.255788 14.768 -100.1794
16.373585 13.947 -98.5876
16.492234 13.099 -95.3725
16.611744 12.204 -89.7523
16.732119 11.429 -81.2545
16.853367 11.155 -70.3327
16.975494 11.519 -58.0987
17.098505 12.314 -47.5495
17.222408 13.354 -40.6663
17.347209 14.607 -36.6094
17.472914 15.835 -34.9223
17.599530 16.870 -35.1426
17.727063 17.750 -36.5562
17.855521 18.467 -38.5712
17.984909 19.012 -41.3387
18.115235 19.397 -44.4119
18.246506 19.629 -47.3808
18.378727 19.709 -50.6195
18.511907 19.646 -53.5101
18.646052 19.441 -55.9993
18.781169 19.110 -58.1304
18.917265 18.679 -59.3592
19.054347 18.155 -59.6556
19.192423 17.622 -59.0394
19.331499 17.117 -57.1258
19.471583 16.691 -54.2575
19.612682 16.428 -51.1525
19.754804 16.310 -47.7901
19.897956 16.264 -45.0823
20.042144 16.268 -43.2368
20.187378 16.209 -41.8159
20.333664 16.008 -40.8843
20.481010 15.652 -39.8209
20.629424 15.095 -37.3672
20.778913 14.427 -33.2396
20.929486 13.953 -25.7893
21.081150 13.802 -14.7281
21.233912 14.284 -3.2415
21.387782 15.485 6.3169
21.542767 16.939 11.4656
21.698874 18.373 12.7366
21.856113 19.682 11.6364
22.014492 20.735 8.5299
22.174018 21.549 4.4293
22.334700 22.126 -0.2508
22.496546 22.470 -5.4064
22.659566 22.592 -10.2192
22.823766 22.497 -15.0360
22.989157 22.199 -18.8080
23.155745 21.718 -21.7938
23.323542 21.111 -23.0705
23.492554 20.441 -22.4505
23.662790 19.878 -19.8527
23.834261 19.494 -15.1827
24.006973 19.407 -9.9661
24.180938 19.574 -4.5687
24.356163 19.855 0.1713
24.532658 20.209 4.7039
24.710431 20.589 10.0328
24.889493 21.135 16.4190
25.069853 22.030 24.3197
25.251519 23.319 31.6458
25.434502 24.997 37.3295
25.618811 26.814 39.6752
25.804456 28.619 39.5150
25.991445 30.282 36.9438
26.179790 31.756 32.9517
26.369500 33.022 27.8800
26.560584 34.082 22.2403
26.753053 34.943 16.2926
26.946917 35.616 10.4357
27.142185 36.113 4.7007
27.338869 36.462 -0.3830
27.536977 36.684 -4.9056
27.736522 36.826 -8.3870
27.937512 36.938 -10.9520
28.139959 37.080 -12.4178
28.343872 37.312 -13.1908
28.549264 37.665 -13.4266
28.756143 38.140 -13.7972
28.964522 38.703 -14.5146
29.174411 39.311 -15.8333
29.385821 39.916 -17.7745
29.598763 40.490 -20.2363
29.813248 41.013 -23.1114
30.029287 41.481 -26.2608
30.246891 41.893 -29.6370
30.466073 42.249 -33.1764
30.686842 42.546 -36.8656
30.909212 42.775 -40.7203
31.133193 42.921 -44.6786
31.358797 42.966 -48.6299
31.586035 42.894 -52.5163
31.814921 42.690 -55.9753
32.045465 42.356 -58.7084
32.277680 41.910 -60.3451
32.511577 41.416 -60.2765
32.747169 40.999 -58.3012
32.984469 40.792 -54.4929
33.223488 40.930 -49.7686
33.464239 41.398 -45.6906
33.706735 42.084 -43.0782
33.950987 42.845 -42.2090
34.197010 43.560 -42.7503
34.444816 44.190 -44.1243
34.694417 44.726 -45.9347
34.945827 45.187 -47.8320
35.199059 45.613 -49.6188
35.454126 46.034 -51.3483
35.711041 46.469 -53.1285
35.969818 46.921 -55.1307
36.230470 47.374 -57.5556
36.493011 47.800 -60.4483
36.757455 48.174 -63.7680
37.023814 48.474 -67.4304
37.292104 48.687 -71.2818
37.562338 48.809 -75.1165
37.834530 48.847 -78.7773
38.108695 48.814 -82.1287
38.384846 48.727 -85.0535
38.662999 48.611 -87.4743
38.943167 48.493 -89.3926
39.225365 48.394 -90.8822
39.509608 48.332 -92.0562
39.795911 48.312 -93.0462
40.084289 48.331 -93.9714
40.374756 48.383 -94.9072
40.667328 48.459 -95.8716
40.962020 48.559 -96.8506
41.258848 48.685 -97.8494
41.557827 48.845 -98.9277
41.858972 49.041 -100.2049
42.162299 49.262 -101.8335
42.467824 49.489 -103.9492
42.775564 49.688 -106.6200
43.085533 49.824 -109.8172
43.397749 49.866 -113.4155
43.712227 49.789 -117.2105
44.028983 49.579 -120.9498
44.348036 49.233 -124.3530
44.669400 48.760 -127.1229
44.993093 48.183 -128.9623
45.319131 47.545 -129.6139
45.647532 46.904 -128.9365
45.978313 46.327 -127.0036
46.311491 45.872 -124.1430
46.647083 45.563 -120.8185
46.985107 45.387 -117.3961
47.325581 45.323 -114.0046
47.668521 45.363 -110.6335
48.013947 45.513 -107.3661
48.361876 45.774 -104.5050
48.712326 46.109 -102.4183
49.065315 46.454 -101.2334
49.420863 46.747 -100.6818
49.778987 46.972 -100.2097
50.139706 47.169 -99.2668
50.503039 47.426 -97.6588
50.869005 47.818 -95.7578
51.237623 48.359 -94.2911
51.608912 48.998 -93.7941
51.982891 49.671 -94.3370
52.359580 50.347 -95.7513
52.739000 51.022 -97.9986
53.121168 51.682 -101.3040
53.506106 52.275 -105.9659
53.893833 52.719 -112.0735
54.284370 52.920 -119.3921
54.677737 52.802 -127.3668
55.073955 52.311 -135.1800
55.473043 51.436 -141.7655
55.875024 50.224 -145.8026
56.279917 48.826 -145.8404
56.687745 47.540 -141.1372
57.098527 46.715 -133.2863
57.512287 46.472 -125.5579
57.929045 46.649 -119.7705
58.348822 47.046 -115.9186
58.771642 47.546 -113.6492
59.197525 48.083 -112.8576
59.626495 48.607 -113.5125
60.058573 49.079 -115.5716
60.493782 49.460 -119.0799
60.932145 49.700 -124.1433
61.373685 49.724 -130.8006
61.818424 49.449 -138.8789
62.266386 48.793 -147.9689
62.717593 47.688 -157.6894
63.172071 46.082 -167.7626
63.629842 43.943 -178.5289
64.090930 41.317 167.5486
64.555359 38.795 139.3627
65.023154 38.373 76.1118
65.494339 40.611 37.5238
65.968938 43.426 22.4839
66.446976 45.927 13.8848
66.928478 48.052 7.5093
67.413469 49.866 2.0140
67.901975 51.418 -3.1667
68.394021 52.739 -8.2284
68.889632 53.853 -13.0971
69.388835 54.801 -17.5507
69.891655 55.633 -21.4672
70.398118 56.397 -24.9298
70.908252 57.113 -28.2036
71.422083 57.772 -31.5084
71.939636 58.359 -34.7963
72.460941 58.884 -37.7915
72.986023 59.390 -40.2963
73.514909 59.927 -42.4373
74.047629 60.511 -44.6997
74.584208 61.104 -47.5969
75.124676 61.631 -51.3517
75.669061 62.019 -55.7859
76.217390 62.214 -60.3475
76.769692 62.217 -64.2084
77.325997 62.102 -66.4437
77.886333 62.026 -66.5060
78.450730 62.158 -64.9727
79.019216 62.552 -63.3558
79.591822 63.117 -62.8101
80.168577 63.743 -63.3066
80.749512 64.394 -64.3368
81.334656 65.084 -65.6950
81.924040 65.818 -67.7488
82.517696 66.544 -70.9773
83.115653 67.178 -75.4689
83.717943 67.654 -80.8036
84.324598 67.957 -86.3091
84.935649 68.118 -91.4736
85.551128 68.183 -96.1471
86.171066 68.179 -100.4341
86.795497 68.112 -104.3363
87.424453 67.997 -107.5524
88.057967 67.895 -109.7805
88.696071 67.887 -111.2206
89.338800 68.008 -112.6165
89.986185 68.218 -114.6262
90.638262 68.456 -117.2437
91.295065 68.715 -119.9750
91.956626 69.053 -122.6741
92.622982 69.498 -126.1930
93.294166 69.953 -131.6735
93.970214 70.250 -139.2190
94.651161 70.273 -147.8344
95.337042 70.019 -156.3289
96.027894 69.561 -164.0729
96.723752 68.976 -171.1387
97.424652 68.305 -177.8762
98.130631 67.549 175.4691
98.841726 66.693 168.7836
99.557974 65.714 162.0507
100.279412 64.599 155.3099
101.006078 63.344 148.5110
101.738010 61.957 141.3639
102.475245 60.450 133.0573
103.217823 58.816 121.9418
103.965782 56.999 105.8216
104.719161 54.991 82.1724
105.477999 53.094 49.1702
106.242336 52.083 14.6569
107.012212 52.449 -8.1818
107.787666 53.691 -20.0659
108.568740 55.181 -26.3413
109.355474 56.653 -30.0538
110.147909 58.067 -32.3348
110.946086 59.451 -33.8716
111.750047 60.817 -35.3871
112.559834 62.149 -37.3340
113.375489 63.409 -40.1409
114.197055 64.533 -44.0068
115.024574 65.486 -48.4784
115.858089 66.283 -52.9518
116.697645 66.967 -57.1708
117.543284 67.572 -61.1978
118.395051 68.100 -65.3450
119.252990 68.522 -69.7180
120.117147 68.829 -73.7759
120.987565 69.088 -76.8076
121.864291 69.414 -78.7568
122.747370 69.884 -80.3945
123.636848 70.486 -82.7349
124.532771 71.153 -86.3206
125.435187 71.817 -91.2106
126.344142 72.421 -97.5724
127.259684 72.877 -105.8220
128.181860 73.069 -115.8580
129.110718 72.915 -126.9467
130.046308 72.374 -138.5220
130.988677 71.390 -150.0964
131.937875 69.910 -160.5471
132.893951 67.935 -168.5308
133.856956 65.505 -173.5364
134.826938 62.628 -175.5149
135.803950 59.399 -172.7759
136.788041 57.120 -143.5911
137.779264 58.635 -32.0090
138.777669 62.026 -25.4637
139.783309 65.029 -30.1310
140.796237 67.355 -37.8107
141.816504 69.090 -46.6802
142.844165 70.351 -55.6724
143.879273 71.251 -64.2891
144.921881 71.855 -72.6741
145.972045 72.182 -80.7934
147.029819 72.249 -88.4009
148.095257 72.056 -95.4590
149.168417 71.600 -101.2184
150.249353 71.006 -103.8636
151.338121 70.554 -103.1956
152.434780 70.404 -102.5239
153.539385 70.347 -105.0364
154.651995 70.001 -110.2534
155.772667 69.163 -114.2515
156.901460 68.036 -111.6349
158.038432 67.224 -101.5026
159.183644 67.109 -92.1891
160.337154 67.411 -86.9529
161.499023 67.863 -82.5630
162.669312 68.486 -77.6051
163.848081 69.336 -72.9142
165.035392 70.302 -70.7427
166.231306 71.164 -71.6584
167.435887 71.853 -73.1495
168.649196 72.532 -73.1081
169.871298 73.379 -72.5188
171.102255 74.397 -73.2652
172.342133 75.457 -76.3433
173.590995 76.372 -82.4766
174.848907 76.947 -91.2323
176.115934 77.067 -101.0385
177.392143 76.726 -109.8786
178.677599 76.044 -115.8438
179.972371 75.253 -118.1388
181.276525 74.630 -117.3131
182.590129 74.384 -115.0693
183.913252 74.490 -114.4775
185.245964 74.663 -117.3058
186.588332 74.614 -122.4745
187.940428 74.211 -127.8308
189.302322 73.467 -131.7002
190.674085 72.475 -132.9027
192.055788 71.452 -129.5576
193.447503 70.843 -120.3385
194.849303 71.038 -109.9250
196.261262 71.891 -103.8699
197.683452 73.080 -101.1355
199.115948 74.447 -100.8299
200.558824 75.776 -105.1491
202.012156 76.756 -114.8145
203.476019 77.161 -127.9158
204.950490 76.882 -142.2289
206.435646 75.868 -155.6626
207.931564 74.139 -165.0332
209.438322 72.042 -163.6035
210.955998 70.885 -141.5251
212.484672 71.776 -123.8840
214.024424 73.267 -129.0715
215.575333 74.030 -144.6804
217.137481 73.715 -162.9272
218.710948 72.330 -178.7351
220.295818 70.044 171.1355
221.892172 67.127 168.6016
223.500094 64.346 -166.8960
225.119668 63.512 -118.7272
226.750978 64.331 -115.2598
228.394109 65.020 -119.8926
230.049147 65.313 -121.6817
231.716178 65.601 -119.5059
233.395289 66.395 -112.6869
235.086567 67.764 -108.7210
236.790102 69.224 -112.4581
238.505980 70.419 -121.0500
240.234293 71.183 -133.3710
241.975130 71.428 -147.7458
243.728581 71.202 -161.9423
245.494739 70.642 -175.2170
247.273695 69.814 171.2128
249.065542 68.695 158.4421
250.870374 67.602 151.1406
252.688284 67.416 149.2181
254.519367 68.307 140.2399
256.363720 69.247 119.7795
258.221437 69.486 93.5184
260.092616 68.849 67.2391
261.977354 67.383 44.6298
263.875750 65.205 29.5970
265.787903 62.787 28.0883
267.713911 61.754 48.1151
269.653877 63.447 73.0767
271.607900 65.913 74.2664
273.576083 67.531 59.8164
275.558528 68.091 44.7877
277.555338 68.248 39.0702
279.566619 68.741 38.1401
281.592474 69.508 33.9230
283.633009 70.098 26.0272
285.688331 70.300 17.7334
287.758546 70.217 11.8199
289.843763 70.164 9.5985
291.944090 70.519 11.0856
294.059638 71.200 8.6117
296.190515 71.579 -1.3312
298.336833 71.346 -11.0715
300.498705 70.920 -13.0465
302.676243 70.815 -14.6393
304.869559 70.680 -24.1185
307.078770 69.883 -37.0421
309.303989 68.232 -44.5250
311.545334 66.220 -35.4584
313.802919 64.748 -24.2700
316.076865 63.813 -22.8734
318.367288 63.123 -14.9630
320.674309 62.954 -4.0303
322.998047 63.128 -1.2513
325.338624 63.717 13.9802
327.696162 64.651 18.7152
330.070783 64.905 5.7316
332.462612 64.012 -6.3734
334.871773 63.066 18.1831
337.298392 64.375 67.6053
339.742595 67.078 71.6145
342.204510 69.598 64.8254
344.684265 71.601 54.5469
347.181989 72.841 38.5087
349.697813 73.046 18.9924
352.231868 72.245 3.2537
354.784285 70.925 -3.2230
357.355198 69.708 -6.4963
359.944741 68.491 -16.0490
362.553049 66.998 -15.8822
365.180258 66.371 22.6263
367.826505 67.215 29.6166
370.491927 68.103 19.6746
373.176665 68.398 9.2493
375.880856 68.299 2.6396
378.604644 68.053 -4.2651
381.348169 67.582 -13.3617
384.111575 67.101 -17.5388
386.895006 67.159 -17.9550
389.698607 67.182 -34.5803
392.522524 65.997 -60.2987
395.366904 63.266 -79.9414
398.231895 59.290 -83.3068
401.117648 55.019 -30.6248
404.024312 52.647 10.2446
406.952038 52.953 45.6786
409.900981 53.763 42.1196
412.871292 53.916 28.3196
415.863128 53.675 18.3516
418.876643 53.496 6.6119
421.911996 53.677 -13.1525
424.969344 54.390 -46.8182
428.048847 55.663 -92.0598
431.150666 57.700 -120.3976
434.274961 59.901 -139.7734
437.421897 60.998 -174.4927
440.591636 60.688 155.5802
443.784345 59.891 146.8842
447.000189 59.896 143.8875
450.239337 60.142 126.1173
453.501956 59.467 102.8302
456.788219 57.518 82.1809
460.098294 54.476 71.8820
463.432356 51.237 134.4840
466.790578 49.841 163.8494
470.173135 50.818 176.2595
473.580203 52.521 -175.8357
477.011961 53.407 172.2147
480.468586 53.566 168.5045
483.950259 54.560 -166.8672
487.457163 56.295 -166.6646
490.989478 57.169 173.3829
494.547390 56.468 151.3259
498.131084 54.589 157.1592
501.740748 53.098 -171.0499
505.376568 52.705 -172.1565
509.038735 53.137 -156.0884
512.727439 54.439 -143.2079
516.442874 55.512 -152.8810
520.185232 56.069 -158.3370
523.954708 56.771 -154.5946
527.751500 57.325 -163.6559
531.575805 57.154 -175.0861
535.427822 56.747 -176.9427
539.307753 57.020 -175.8285
543.215800 58.229 -172.1891
547.152165 59.649 -177.3281
551.117055 60.201 162.8662
555.110677 59.809 144.7321
559.133237 59.309 142.1483
563.184947 59.576 145.5701
567.266018 59.843 129.8540
571.376661 59.521 116.2145
575.517092 58.929 105.2185
579.687526 58.061 97.9310
583.888181 57.377 100.7085
588.119275 57.907 105.6946
592.381030 60.167 121.5045
596.673667 63.053 134.6382
600.997410 65.169 117.8872
605.352485 66.330 97.4722
609.739119 67.131 82.2449
614.157540 67.808 65.9331
618.607979 68.051 45.6895
623.090667 67.511 22.3536
627.605839 65.942 -0.9772
632.153730 63.323 -20.7446
636.734576 59.968 -20.1040
641.348617 57.705 34.0078
645.996094 58.563 102.5389
650.677248 60.653 98.9703
655.392323 62.718 89.3151
660.141566 64.571 77.7251
664.925224 65.880 60.5004
669.743546 66.668 41.8242
674.596784 66.931 20.4740
679.485191 66.562 -4.1185
684.409020 65.512 -32.6647
689.368530 63.697 -68.7771
694.363979 61.446 -138.8087
699.395626 60.473 79.9634
704.463736 61.199 46.7776
709.568570 62.558 26.8219
714.710396 63.965 6.5663
719.889483 65.116 -14.9877
725.106099 65.784 -39.2106
730.360516 65.642 -64.2922
735.653010 64.862 -81.1821
740.983855 63.980 -96.3706
746.353329 62.897 -108.1616
751.761713 61.979 -106.9697
757.209288 61.273 -115.4492
762.696339 60.536 -118.4419
768.223151 60.788 -111.0615
773.790013 62.320 -107.5706
779.397214 63.986 -116.7275
785.045047 64.769 -136.6602
790.733808 64.425 -156.7717
796.463791 63.355 -169.0300
802.235296 62.330 -174.5557
808.048623 61.844 -178.5320
813.904077 61.707 171.9717
819.801961 61.690 161.7256
825.742584 62.158 153.1426
831.726255 62.852 135.3062
837.753287 62.955 108.8679
843.823992 62.046 79.4114
849.938689 60.006 53.4412
856.097695 57.172 33.2334
862.301332 54.081 25.0847
868.549922 52.693 46.6262
874.843793 55.561 -141.3887
881.183272 59.574 -173.6377
887.568689 62.725 147.0991
894.000378 64.587 105.7798
900.478673 65.083 63.8020
907.003913 64.390 22.1125
913.576437 62.775 -21.3374
920.196588 60.614 -73.8101
926.864712 58.323 -139.7688
933.581156 56.870 167.4187
940.346270 57.210 135.2009
947.160407 58.029 104.5327
954.023921 58.458 82.0042
960.937172 59.084 70.7046
967.900519 59.630 48.9407
974.914325 59.574 22.3093
981.978956 58.799 -2.7261
989.094780 57.746 -18.8525
996.262169 57.377 -29.1074
1003.481495 58.694 14.3530
1010.753136 60.954 19.3413
1018.077470 62.722 -4.2104
1025.454879 63.876 -27.3406
1032.885748 64.074 -54.2412
1040.370463 63.344 -77.5564
1047.909417 62.436 -95.1519
1055.503000 61.979 -118.5894
1063.151610 61.592 -156.7410
1070.855645 60.920 151.3540
1078.615506 60.110 96.1770
1086.431599 59.206 54.3591
1094.304330 58.409 32.7053
1102.234110 57.960 13.7979
1110.221353 57.168 -8.2375
1118.266475 56.500 -2.3037
1126.369895 56.842 44.7444
1134.532035 57.239 19.1626
1142.753322 57.276 -9.0879
1151.034184 57.836 -32.8455
1159.375052 59.195 -88.9106
1167.776361 60.820 -151.0107
1176.238550 62.053 162.8638
1184.762060 61.972 124.0664
1193.347334 60.354 93.6592
1201.994821 57.748 72.8867
1210.704971 55.707 148.1106
1219.478238 55.865 164.0713
1228.315080 56.232 142.5149
1237.215957 55.668 126.3264
1246.181334 54.386 120.9187
1255.211678 52.664 152.7236
1264.307459 52.386 -162.7351
1273.469152 54.250 -159.2920
1282.697235 56.081 173.1357
1291.992188 56.734 117.1394
1301.354495 56.858 31.8127
1310.784647 57.593 -31.5159
1320.283132 58.090 -78.8040
1329.850448 57.449 -124.9395
1339.487093 57.229 47.5317
1349.193569 58.756 20.8042
1358.970381 60.010 -8.1521
1368.818041 59.438 -36.2944
1378.737061 57.516 -36.3730
1388.727958 55.584 -7.5432
1398.791253 54.193 -2.3110
1408.927471 53.471 11.3511
1419.137140 53.691 38.9006
1429.420793 54.346 38.3052
1439.778965 55.029 21.0811
1450.212197 56.971 100.4199
1460.721033 59.177 106.2488
1471.306019 59.860 83.1274
1481.967709 59.364 145.7725
1492.706658 58.672 126.7214
1503.523426 58.365 100.3311
1514.418576 58.101 46.4463
1525.392678 58.173 -76.6497
1536.446302 59.115 -124.5325
1547.580025 59.681 -148.4871
1558.794428 59.465 -167.1646
1570.090095 58.911 -165.3030
1581.467615 58.951 -132.1919
1592.927581 58.846 -163.4089
1604.470591 58.493 35.9749
1616.097246 58.636 -38.5493
1627.808153 58.889 -57.9714
1639.603922 59.140 -74.0349
1651.485168 58.349 -100.6982
1663.452510 56.660 -134.6033
1675.506573 56.312 97.0029
1687.647984 58.225 63.2776
1699.877377 60.597 54.7646
1712.195390 61.596 29.5747
1724.602663 60.624 3.2031
1737.099845 58.975 34.9971
1749.687587 58.686 73.5630
1762.366544 58.655 55.6204
1775.137379 57.598 54.2864
1788.000756 57.019 53.0852
1800.957346 58.073 21.2314
1814.007826 59.337 -56.4229
1827.152874 59.789 -109.9307
1840.393177 59.824 -132.8984
1853.729425 59.464 -159.2261
1867.162312 58.673 173.8906
1880.692540 58.292 140.6978
