* Measurement data measured by REW V5.31
* Source: Scarlett 2i4 USB, MICROPHONE, R, volume: no control. Timing signal peak level -30.2 dBFS, measurement signal peak level -24.0 dBFS
* Format: 512k Log Swept Sine, 1 sweep at -18.0 dBFS using an acoustic timing reference
* Dated: Apr 16, 2024 9:25:50 AM
* REW Settings:
*  C-weighting compensation: Off
*  Target level: 75.0 dB
* Note: ; Delay 0.0535 ms (18 mm, 0.72 in) using estimated IR delay relative to Acoustic reference played from SPEAKER L with no timing offset
* Measurement: couch-p1-r
* Smoothing: 1/48 octave
* Frequency Step: 96 ppo
* Start Frequency: 10.093689 Hz
*
* Freq(Hz) SPL(dB) Phase(degrees)
10.093689 24.329 -4.3197
10.166832 24.348 -7.3947
10.240505 24.372 -10.4645
10.314712 24.396 -13.4594
10.389457 24.414 -16.2991
10.464743 24.404 -18.9243
10.540575 24.351 -21.4814
10.616956 24.265 -23.9645
10.693891 24.148 -26.3111
10.771383 23.997 -28.4407
10.849437 23.812 -30.3966
10.928057 23.593 -32.2295
11.007246 23.336 -33.8796
11.087009 23.034 -35.2628
11.167350 22.685 -36.3351
11.248273 22.288 -37.1352
11.329783 21.847 -37.5663
11.411883 21.359 -37.4884
11.494578 20.808 -36.7502
11.577873 20.177 -35.2563
11.661771 19.536 -32.7928
11.746277 18.977 -29.1165
11.831395 18.546 -23.9958
11.917130 18.208 -17.2336
12.003487 18.032 -9.1653
12.090469 18.133 -0.6913
12.178081 18.609 7.2873
12.266329 19.423 14.3978
12.355216 20.412 19.9028
12.444747 21.421 23.5420
12.534926 22.419 25.7221
12.625760 23.439 26.9117
12.717251 24.431 27.1619
12.809406 25.340 26.5439
12.902228 26.166 25.3023
12.995723 26.924 23.6334
13.089895 27.617 21.6154
13.184750 28.245 19.2390
13.280292 28.806 16.5187
13.376526 29.303 13.6278
13.473458 29.743 10.6654
13.571093 30.124 7.4547
13.669434 30.445 4.0681
13.768489 30.711 0.7079
13.868261 30.921 -2.6321
13.968756 31.075 -6.1636
14.069979 31.173 -9.6612
14.171936 31.219 -12.9377
14.274632 31.208 -16.2584
14.378072 31.145 -19.5221
14.482261 31.033 -22.4669
14.587206 30.869 -25.1710
14.692910 30.660 -27.6840
14.799381 30.422 -29.8020
14.906624 30.153 -31.3818
15.014643 29.865 -32.4898
15.123446 29.600 -33.1173
15.233036 29.379 -33.1194
15.343421 29.204 -32.4568
15.454606 29.123 -31.4979
15.566596 29.172 -30.3843
15.679398 29.341 -29.0307
15.793018 29.608 -28.0210
15.907460 29.969 -27.5972
16.022732 30.412 -27.5584
16.138840 30.880 -28.1418
16.255788 31.343 -29.4330
16.373585 31.800 -31.2140
16.492234 32.216 -33.3471
16.611744 32.578 -35.9398
16.732119 32.885 -38.8214
16.853367 33.124 -41.6722
16.975494 33.291 -44.7230
17.098505 33.386 -47.7456
17.222408 33.408 -50.3899
17.347209 33.355 -52.9129
17.472914 33.243 -54.9962
17.599530 33.078 -56.3577
17.727063 32.876 -57.1135
17.855521 32.694 -57.0605
17.984909 32.546 -55.9817
18.115235 32.485 -54.1290
18.246506 32.586 -51.8258
18.378727 32.848 -49.0502
18.511907 33.253 -46.6680
18.646052 33.799 -44.8690
18.781169 34.431 -43.7218
18.917265 35.070 -43.5458
19.054347 35.705 -44.1037
19.192423 36.291 -45.1950
19.331499 36.804 -46.8516
19.471583 37.244 -48.7746
19.612682 37.599 -50.7328
19.754804 37.876 -52.8137
19.897956 38.086 -54.5980
20.042144 38.233 -56.1673
20.187378 38.346 -57.3790
20.333664 38.445 -58.0805
20.481010 38.552 -58.4046
20.629424 38.703 -58.3738
20.778913 38.905 -58.0363
20.929486 39.170 -57.7702
21.081150 39.497 -57.5290
21.233912 39.857 -57.6161
21.387782 40.239 -58.0642
21.542767 40.612 -58.8067
21.698874 40.954 -59.9007
21.856113 41.257 -61.1342
22.014492 41.508 -62.3984
22.174018 41.717 -63.6153
22.334700 41.896 -64.5351
22.496546 42.061 -65.2171
22.659566 42.247 -65.5321
22.823766 42.468 -65.5708
22.989157 42.754 -65.5336
23.155745 43.104 -65.4654
23.323542 43.507 -65.7396
23.492554 43.948 -66.3000
23.662790 44.388 -67.3293
23.834261 44.810 -68.7110
24.006973 45.183 -70.3042
24.180938 45.504 -72.0231
24.356163 45.773 -73.5197
24.532658 46.007 -74.7773
24.710431 46.241 -75.4674
24.889493 46.516 -75.7310
25.069853 46.884 -75.5190
25.251519 47.368 -75.2953
25.434502 47.984 -75.2517
25.618811 48.692 -75.9597
25.804456 49.458 -77.4527
25.991445 50.214 -79.9491
26.179790 50.926 -83.2799
26.369500 51.547 -87.3153
26.560584 52.060 -91.8589
26.753053 52.448 -96.6865
26.946917 52.708 -101.5240
27.142185 52.840 -106.2746
27.338869 52.859 -110.5006
27.536977 52.782 -114.1903
27.736522 52.656 -116.9339
27.937512 52.529 -118.8029
28.139959 52.467 -119.6565
28.343872 52.530 -119.9886
28.549264 52.746 -119.9927
28.756143 53.101 -120.4579
28.964522 53.549 -121.5613
29.174411 54.031 -123.5697
29.385821 54.484 -126.3965
29.598763 54.873 -129.9066
29.813248 55.168 -133.9058
30.029287 55.362 -138.1060
30.246891 55.451 -142.4402
30.466073 55.440 -146.5972
30.686842 55.338 -150.4831
30.909212 55.155 -153.9813
31.133193 54.908 -156.8852
31.358797 54.618 -159.1134
31.586035 54.309 -160.5150
31.814921 54.025 -160.9794
32.045465 53.820 -160.5376
32.277680 53.747 -159.2817
32.511577 53.862 -157.6652
32.747169 54.169 -156.2869
32.984469 54.636 -155.5799
33.223488 55.196 -155.9427
33.464239 55.771 -157.4159
33.706735 56.308 -159.7874
33.950987 56.768 -162.8625
34.197010 57.137 -166.2758
34.444816 57.424 -169.7494
34.694417 57.647 -173.1220
34.945827 57.838 -176.2390
35.199059 58.035 -179.1203
35.454126 58.260 178.0553
35.711041 58.519 175.1068
35.969818 58.800 171.8170
36.230470 59.071 168.0220
36.493011 59.295 163.7611
36.757455 59.446 159.1425
37.023814 59.502 154.3182
37.292104 59.456 149.5359
37.562338 59.319 145.0724
37.834530 59.116 141.0964
38.108695 58.882 137.7188
38.384846 58.660 134.9630
38.662999 58.490 132.7014
38.943167 58.396 130.6432
39.225365 58.376 128.5094
39.509608 58.411 126.1048
39.795911 58.475 123.3412
40.084289 58.544 120.2349
40.374756 58.608 116.8754
40.667328 58.667 113.3707
40.962020 58.740 109.7676
41.258848 58.845 106.0114
41.557827 59.001 101.9446
41.858972 59.212 97.3361
42.162299 59.468 91.9341
42.467824 59.742 85.5265
42.775564 59.998 77.9807
43.085533 60.199 69.2542
43.397749 60.313 59.3812
43.712227 60.317 48.4544
44.028983 60.197 36.5928
44.348036 59.949 23.9219
44.669400 59.574 10.5760
44.993093 59.085 -3.2886
45.319131 58.496 -17.4756
45.647532 57.830 -31.7203
45.978313 57.114 -45.6690
46.311491 56.382 -58.8771
46.647083 55.685 -70.8519
46.985107 55.091 -81.1647
47.325581 54.689 -89.6404
47.668521 54.550 -96.5372
48.013947 54.682 -102.5006
48.361876 55.006 -108.1851
48.712326 55.402 -113.8293
49.065315 55.780 -119.1449
49.420863 56.128 -123.5209
49.778987 56.525 -126.4149
50.139706 57.105 -127.8491
50.503039 57.952 -128.6545
50.869005 59.032 -129.9834
51.237623 60.235 -132.4610
51.608912 61.478 -135.9956
51.982891 62.747 -140.2766
52.359580 64.066 -145.2963
52.739000 65.432 -151.4697
53.121168 66.782 -159.3164
53.506106 68.017 -169.0635
53.893833 69.041 179.4473
54.284370 69.779 166.6174
54.677737 70.186 152.9893
55.073955 70.239 139.1703
55.473043 69.935 125.8077
55.875024 69.295 113.5688
56.279917 68.373 103.0703
56.687745 67.262 94.8558
57.098527 66.091 89.0617
57.512287 64.982 85.2166
57.929045 63.985 82.5837
58.348822 63.083 80.7849
58.771642 62.260 79.9529
59.197525 61.558 80.3106
59.626495 61.053 81.5969
60.058573 60.785 83.1354
60.493782 60.735 84.3419
60.932145 60.872 84.9238
61.373685 61.163 84.5592
61.818424 61.548 82.7951
62.266386 61.927 79.4300
62.717593 62.207 74.7333
63.172071 62.340 69.2891
63.629842 62.333 63.7098
64.090930 62.230 58.3503
64.555359 62.089 53.2964
65.023154 61.959 48.3764
65.494339 61.865 43.2968
65.968938 61.806 37.7247
66.446976 61.759 31.4166
66.928478 61.688 24.2794
67.413469 61.559 16.3897
67.901975 61.360 7.9113
68.394021 61.102 -0.9860
68.889632 60.811 -10.2814
69.388835 60.519 -20.0487
69.891655 60.252 -30.4385
70.398118 60.032 -41.6153
70.908252 59.872 -53.7844
71.422083 59.754 -67.1407
71.939636 59.626 -81.7737
72.460941 59.396 -97.4150
72.986023 58.967 -113.5692
73.514909 58.248 -129.3827
74.047629 57.157 -143.9539
74.584208 55.620 -155.9755
75.124676 53.649 -162.3979
75.669061 51.933 -152.8716
76.217390 52.528 -116.2292
76.769692 55.202 -99.4806
77.325997 57.933 -102.1808
77.886333 60.162 -109.9943
78.450730 62.007 -118.5847
79.019216 63.636 -127.1594
79.591822 65.100 -136.2998
80.168577 66.353 -146.3809
80.749512 67.352 -157.1025
81.334656 68.109 -167.8647
81.924040 68.667 -178.3953
82.517696 69.038 171.1477
83.115653 69.177 160.6667
83.717943 69.023 150.6289
84.324598 68.570 142.1185
84.935649 67.915 136.3577
85.551128 67.269 134.1531
86.171066 66.914 135.2184
86.795497 67.066 137.8608
87.424453 67.728 139.7559
88.057967 68.718 139.4636
88.696071 69.847 136.8257
89.338800 71.003 132.0955
89.986185 72.113 125.3354
90.638262 73.103 116.4865
91.295065 73.886 105.5764
91.956626 74.369 92.8130
92.622982 74.456 78.6887
93.294166 74.068 64.1055
93.970214 73.163 50.4242
94.651161 71.785 39.3260
95.337042 70.086 32.2554
96.027894 68.317 29.3544
96.723752 66.706 29.2468
97.424652 65.356 30.6902
98.130631 64.290 33.2766
98.841726 63.520 36.6144
99.557974 63.053 40.2865
100.279412 62.898 43.8472
101.006078 63.037 46.4646
101.738010 63.376 47.1473
102.475245 63.749 45.1681
103.217823 63.958 40.5759
103.965782 63.847 34.5411
104.719161 63.379 28.8951
105.477999 62.658 25.2021
106.242336 61.883 23.8940
107.012212 61.246 24.0669
107.787666 60.815 23.9565
108.568740 60.472 21.9204
109.355474 59.982 17.8926
110.147909 59.164 13.4630
110.946086 57.990 10.5728
111.750047 56.538 10.0273
112.559834 54.866 11.5502
113.375489 53.027 17.4326
114.197055 51.588 36.6024
115.024574 51.799 66.9113
115.858089 53.463 82.9136
116.697645 55.307 86.5017
117.543284 56.791 84.8070
118.395051 57.838 80.7848
119.252990 58.469 75.7029
120.117147 58.697 70.1758
120.987565 58.516 64.9049
121.864291 57.937 61.1027
122.747370 57.049 60.3529
123.636848 56.074 64.1779
124.532771 55.408 73.4875
125.435187 55.507 86.4674
126.344142 56.431 97.6669
127.259684 57.795 104.2423
128.181860 59.267 107.1257
129.110718 60.738 107.9175
130.046308 62.183 106.9392
130.988677 63.484 102.9843
131.937875 64.457 96.0603
132.893951 64.999 87.8159
133.856956 65.117 79.8759
134.826938 64.877 73.4773
135.803950 64.402 69.6454
136.788041 63.887 69.1521
137.779264 63.617 72.2950
138.777669 63.845 77.1268
139.783309 64.515 80.0437
140.796237 65.338 79.7605
141.816504 66.065 76.8374
142.844165 66.541 72.1514
143.879273 66.707 67.2572
144.921881 66.638 63.9624
145.972045 66.527 63.2029
147.029819 66.621 64.9221
148.095257 67.147 68.2664
149.168417 68.163 71.0010
150.249353 69.447 70.2524
151.338121 70.671 65.2244
152.434780 71.618 57.1908
153.539385 72.210 47.6982
154.651995 72.464 38.1348
155.772667 72.476 29.5631
156.901460 72.380 22.1494
158.038432 72.266 15.1801
159.183644 72.139 7.8770
160.337154 71.946 -0.2091
161.499023 71.593 -9.3522
162.669312 70.955 -19.4506
163.848081 69.905 -29.4148
165.035392 68.399 -36.8832
166.231306 66.585 -38.9447
167.435887 64.853 -35.2627
168.649196 63.591 -30.0201
169.871298 62.816 -26.4991
171.102255 62.249 -25.1350
172.342133 61.654 -24.3531
173.590995 61.083 -21.5447
174.848907 61.005 -14.1555
176.115934 61.934 -4.8136
177.392143 63.434 -5.3816
178.677599 64.550 -18.3824
179.972371 64.781 -38.3055
181.276525 64.078 -61.3854
182.590129 62.686 -88.1552
183.913252 61.263 -125.8556
185.245964 60.964 178.4867
186.588332 62.140 131.2368
187.940428 63.843 101.5524
189.302322 65.395 80.1719
190.674085 66.615 62.3676
192.055788 67.454 45.7371
193.447503 67.859 29.2572
194.849303 67.786 12.8795
196.261262 67.193 -3.2673
197.683452 66.003 -18.8502
199.115948 64.128 -31.9182
200.558824 61.612 -39.1272
202.012156 58.835 -41.5806
203.476019 56.969 -52.1016
204.950490 58.028 -134.2898
206.435646 61.087 138.9216
207.931564 63.830 111.3860
209.438322 65.606 89.3798
210.955998 66.570 72.4702
212.484672 67.229 62.7018
214.024424 68.057 57.3818
215.575333 68.988 50.1464
217.137481 69.666 39.7491
218.710948 69.902 28.4948
220.295818 69.698 18.1163
221.892172 69.066 8.7040
223.500094 68.092 3.9156
225.119668 67.461 11.2224
226.750978 67.915 19.7434
228.394109 68.780 15.9269
230.049147 69.137 5.7156
231.716178 68.782 -3.2249
233.395289 68.052 -6.1146
235.086567 67.564 -2.7607
236.790102 67.697 1.3340
238.505980 68.089 -0.7487
240.234293 68.219 -6.0273
241.975130 68.266 -5.5825
243.728581 68.723 -2.2708
245.494739 69.327 -6.1323
247.273695 69.645 -12.4806
249.065542 69.723 -17.2812
250.870374 69.595 -23.2272
252.688284 69.321 -26.9109
254.519367 69.580 -21.4249
256.363720 70.801 -16.5481
258.221437 72.082 -25.6819
260.092616 72.518 -43.5831
261.977354 71.805 -62.3970
263.875750 70.007 -75.1475
265.787903 67.642 -72.6829
267.713911 66.210 -46.7085
269.653877 66.726 -33.1237
271.607900 67.621 -39.5513
273.576083 67.820 -49.6472
275.558528 67.675 -51.0221
277.555338 68.106 -45.0905
279.566619 68.997 -48.6011
281.592474 69.579 -59.6976
283.633009 69.438 -73.9944
285.688331 68.378 -87.1064
287.758546 66.559 -92.1245
289.843763 64.793 -82.9385
291.944090 64.512 -59.2031
294.059638 65.592 -52.6726
296.190515 66.506 -60.4912
298.336833 66.803 -68.4531
300.498705 66.974 -69.5991
302.676243 67.489 -69.8191
304.869559 68.055 -76.3433
307.078770 68.223 -86.5127
309.303989 67.812 -97.3457
311.545334 66.890 -104.0688
313.802919 66.120 -96.3794
316.076865 66.259 -88.8357
318.367288 66.798 -93.0469
320.674309 67.393 -96.5300
322.998047 68.313 -97.9795
325.338624 69.390 -104.5293
327.696162 70.084 -117.6614
330.070783 70.159 -131.9829
332.462612 69.825 -143.8252
334.871773 69.302 -154.9534
337.298392 68.609 -165.7307
339.742595 67.754 -175.0530
342.204510 66.855 177.9170
344.684265 66.044 171.6733
347.181989 65.437 166.8743
349.697813 65.388 165.6133
352.231868 66.101 162.5957
354.784285 67.036 151.4033
357.355198 67.528 133.6094
359.944741 67.253 113.5483
362.553049 66.223 97.6960
365.180258 65.032 91.1416
367.826505 64.584 87.7983
370.491927 65.064 82.8638
373.176665 65.652 68.6582
375.880856 65.690 51.2561
378.604644 65.381 37.3445
381.348169 65.056 23.5015
384.111575 64.711 8.5591
386.895006 64.236 -9.0203
389.698607 63.072 -32.6060
392.522524 60.745 -50.2952
395.366904 58.386 0.0547
398.231895 58.687 41.4519
401.117648 60.461 29.0251
404.024312 61.536 9.8086
406.952038 61.718 -5.7104
409.900981 61.721 -13.8035
412.871292 62.094 -20.3611
415.863128 62.561 -32.3093
418.876643 62.440 -49.7476
421.911996 61.672 -62.3242
424.969344 60.993 -68.0110
428.048847 60.520 -82.0142
431.150666 59.499 -101.8320
434.274961 57.795 -119.2302
437.421897 56.390 -124.5706
440.591636 57.026 -127.7986
443.784345 58.875 -175.8149
447.000189 60.685 78.2349
450.239337 62.390 -7.9873
453.501956 63.720 -68.8950
456.788219 64.376 -122.7239
460.098294 64.648 -168.1758
463.432356 65.518 159.2161
466.790578 67.309 133.5449
470.173135 68.891 102.3298
473.580203 69.574 69.2900
477.011961 69.403 39.4731
480.468586 68.660 15.7134
483.950259 67.896 -1.0754
487.457163 67.234 -21.9451
490.989478 66.040 -43.9968
494.547390 65.098 -24.5884
498.131084 66.148 -2.9668
501.740748 67.762 -28.2861
505.376568 68.481 -64.7488
509.038735 68.041 -108.5122
512.727439 66.768 -164.3794
516.442874 65.733 114.5522
520.185232 65.443 44.6868
523.954708 64.930 -2.6194
527.751500 63.511 -35.4773
531.575805 61.739 -41.2173
535.427822 61.365 -27.3022
539.307753 62.658 -23.9219
543.215800 64.311 -38.2900
547.152165 65.264 -71.4690
551.117055 65.416 -114.5298
555.110677 65.025 -176.0405
559.133237 64.693 96.8147
563.184947 64.837 32.2161
567.266018 64.701 -11.6543
571.376661 63.948 -42.8994
575.517092 63.165 -62.5735
579.687526 62.956 -79.5403
583.888181 62.640 -108.1682
588.119275 61.415 -145.0222
592.381030 59.400 168.5491
596.673667 58.188 79.0676
600.997410 59.363 0.0571
605.352485 60.820 -50.4263
609.739119 61.356 -97.1714
614.157540 61.653 -141.3843
618.607979 62.528 169.9980
623.090667 63.940 114.9819
627.605839 65.794 57.8745
632.153730 67.831 -3.3188
636.734576 69.553 -69.4932
641.348617 70.402 -136.5146
645.996094 69.971 164.7451
650.677248 68.678 123.4111
655.392323 67.597 94.0171
660.141566 66.849 66.2690
664.925224 66.058 46.0894
669.743546 65.811 38.6836
674.596784 65.981 27.3013
679.485191 65.943 17.9341
684.409020 65.902 4.5039
689.368530 65.218 -15.3457
694.363979 63.988 -19.2144
699.395626 63.716 -14.5542
704.463736 64.491 -17.0459
709.568570 64.935 -40.9111
714.710396 64.759 -66.6162
719.889483 64.558 -1.3257
725.106099 64.420 -10.5605
730.360516 64.639 -37.4624
735.653010 65.298 -70.3271
740.983855 65.477 -118.2979
746.353329 64.494 167.4507
751.761713 62.512 71.3306
757.209288 60.458 37.2803
762.696339 59.423 15.6641
768.223151 59.691 53.2881
773.790013 61.760 86.0854
779.397214 64.686 72.3125
785.045047 66.927 48.2388
790.733808 67.905 22.0483
796.463791 68.267 7.4038
802.235296 68.976 -6.7114
808.048623 69.520 -29.0942
813.904077 69.343 -53.5508
819.801961 68.347 -78.0044
825.742584 67.183 -90.7393
831.726255 67.517 -103.7397
837.753287 68.242 -144.1235
843.823992 67.650 158.2905
849.938689 65.955 102.1533
856.097695 64.370 62.6172
862.301332 64.431 60.7300
868.549922 66.747 68.1333
874.843793 69.579 49.8975
881.183272 71.272 20.1577
887.568689 71.215 -12.3779
894.000378 69.923 -35.6675
900.478673 69.085 -33.3633
907.003913 70.091 -30.9766
913.576437 70.873 -58.6548
920.196588 69.944 -94.1455
926.864712 67.649 -129.6294
933.581156 65.125 176.5850
940.346270 64.420 62.6113
947.160407 65.513 38.5469
954.023921 66.983 22.1987
960.937172 68.214 -0.6055
967.900519 68.941 -23.1802
974.914325 68.829 -44.5576
981.978956 68.016 -59.8979
989.094780 66.946 -72.3555
996.262169 65.614 -85.6665
1003.481495 64.520 -80.1260
1010.753136 65.439 -40.6406
1018.077470 67.326 -48.5977
1025.454879 68.139 -70.7100
1032.885748 67.590 -84.1528
1040.370463 66.522 -93.7588
1047.909417 65.487 -103.1470
1055.503000 64.690 -108.3979
1063.151610 63.903 -92.9683
1070.855645 63.189 -94.7661
1078.615506 62.767 -103.4028
1086.431599 63.682 -92.9282
1094.304330 65.618 -90.7012
1102.234110 67.604 -56.2725
1110.221353 68.999 -67.4741
1118.266475 69.001 -103.2134
1126.369895 67.402 -133.8647
1134.532035 64.854 -155.9932
1142.753322 62.417 -140.2798
1151.034184 61.197 -91.4365
1159.375052 61.218 -94.3921
1167.776361 62.402 -85.1016
1176.238550 63.427 -101.7744
1184.762060 63.136 -118.6592
1193.347334 62.801 -93.2139
1201.994821 64.054 -88.3149
1210.704971 65.022 -112.3086
1219.478238 64.066 -139.0054
1228.315080 61.814 -134.9570
1237.215957 60.444 -117.6685
1246.181334 60.299 -130.6992
1255.211678 59.553 -150.7812
1264.307459 57.889 -151.2808
1273.469152 57.147 -119.9692
1282.697235 57.964 -111.5967
1291.992188 59.091 -125.4961
1301.354495 60.029 -149.7114
1310.784647 61.139 -140.3667
1320.283132 61.858 -66.3608
1329.850448 61.448 -98.7495
1339.487093 61.048 -101.2051
1349.193569 62.664 -76.8325
1358.970381 64.696 -96.0112
1368.818041 65.734 -123.9478
1378.737061 65.940 -146.6182
1388.727958 65.986 -169.5693
1398.791253 65.621 156.1968
1408.927471 65.052 172.6108
1419.137140 65.377 -138.8730
1429.420793 65.230 -174.9785
1439.778965 64.174 -168.3892
1450.212197 63.865 -149.0405
1460.721033 64.515 -170.5913
1471.306019 65.401 -158.8096
1481.967709 65.904 173.9927
1492.706658 65.939 131.4292
1503.523426 66.010 90.0483
1514.418576 66.213 45.4365
1525.392678 66.616 4.1895
1536.446302 67.439 -32.6250
1547.580025 68.146 -67.2803
1558.794428 68.069 -106.3330
1570.090095 67.015 -129.2158
1581.467615 66.829 -102.1519
1592.927581 67.158 -124.4863
1604.470591 66.380 -140.8491
1616.097246 65.253 -131.0566
1627.808153 64.564 -141.9150
1639.603922 64.839 -152.6436
1651.485168 65.314 -173.4819
1663.452510 64.922 161.4863
1675.506573 63.747 143.0044
1687.647984 62.616 136.7104
1699.877377 62.016 121.8374
1712.195390 61.926 102.4438
1724.602663 62.487 62.6196
1737.099845 63.093 -21.2109
1749.687587 64.030 -131.4824
1762.366544 64.866 157.1572
1775.137379 65.010 91.2012
1788.000756 64.640 20.0532
1800.957346 63.760 -44.7295
1814.007826 62.874 -84.6650
1827.152874 62.862 -111.8442
1840.393177 63.897 -133.9077
1853.729425 65.281 -137.2012
1867.162312 66.007 -138.4985
1880.692540 66.045 -158.8496
1894.320813 66.192 178.0898
1908.047843 66.287 153.5923
1921.874344 65.728 132.4570
