* Measurement data measured by REW V5.31
* Source: Scarlett 2i4 USB, MICROPHONE, L, volume: no control. Timing signal peak level -32.9 dBFS, measurement signal peak level -20.7 dBFS
* Format: 512k Log Swept Sine, 1 sweep at -18.0 dBFS using an acoustic timing reference
* Dated: Apr 9, 2024 1:55:44 PM
* REW Settings:
*  C-weighting compensation: Off
*  Target level: 75.0 dB
* Note: ; Delay -0.1104 ms (-38 mm, -1.49 in) using estimated IR delay relative to Acoustic reference played from SPEAKER L with no timing offset Clock adjustment: 5.4 ppm
* Measurement: p2_room_mic-to-mic
* Smoothing: 1/48 octave
* Frequency Step: 96 ppo
* Start Frequency: 15.140533 Hz
*
* Freq(Hz) SPL(dB) Phase(degrees)
15.140533 62.874 -88.9795
15.250248 62.995 -91.4035
15.360758 63.141 -93.8392
15.472068 63.291 -96.2588
15.584185 63.438 -98.6685
15.697114 63.583 -101.0804
15.810862 63.722 -103.4697
15.925434 63.856 -105.8422
16.040836 63.984 -108.2083
16.157075 64.107 -110.5461
16.274156 64.226 -112.8660
16.392085 64.340 -115.1712
16.510869 64.448 -117.4402
16.630513 64.552 -119.6893
16.751025 64.652 -121.9117
16.872410 64.747 -124.0857
16.994674 64.838 -126.2300
17.117825 64.926 -128.3296
17.241867 65.011 -130.3667
17.366809 65.094 -132.3563
17.492656 65.178 -134.2858
17.619415 65.263 -136.1444
17.747093 65.352 -137.9444
17.875695 65.448 -139.6927
18.005230 65.552 -141.3745
18.135703 65.665 -143.0239
18.267122 65.792 -144.6565
18.399493 65.931 -146.2615
18.532824 66.082 -147.9017
18.667120 66.247 -149.5630
18.802390 66.422 -151.2699
18.938640 66.605 -153.0624
19.075877 66.795 -154.9186
19.214108 66.987 -156.8611
19.353342 67.178 -158.8965
19.493584 67.367 -161.0005
19.634843 67.549 -163.1762
19.777125 67.726 -165.4151
19.920438 67.899 -167.6741
20.064790 68.068 -169.9740
20.210187 68.234 -172.2660
20.356639 68.397 -174.5514
20.504151 68.557 -176.8233
20.652733 68.715 -179.0596
20.802391 68.872 178.7223
20.953134 69.031 176.5215
21.104969 69.194 174.3350
21.257904 69.361 172.1261
21.411948 69.533 169.9009
21.567108 69.709 167.6206
21.723392 69.887 165.2774
21.880808 70.064 162.8636
22.039366 70.237 160.3567
22.199072 70.401 157.7784
22.359936 70.554 155.1171
22.521965 70.692 152.3979
22.685168 70.813 149.6423
22.849554 70.915 146.8608
23.015132 70.996 144.1083
23.181909 71.059 141.3795
23.349895 71.104 138.7461
23.519098 71.135 136.1940
23.689527 71.157 133.7877
23.861191 71.174 131.5081
24.034099 71.193 129.3883
24.208260 71.218 127.3974
24.383683 71.255 125.5225
24.560377 71.314 123.7053
24.738352 71.406 121.8958
24.917616 71.535 120.0039
25.098179 71.702 117.9747
25.280051 71.892 115.7150
25.463241 72.094 113.1906
25.647758 72.288 110.3580
25.833612 72.465 107.2042
26.020813 72.615 103.7634
26.209371 72.734 100.0400
26.399294 72.816 96.1191
26.590595 72.851 92.0494
26.783281 72.828 87.8893
26.977364 72.741 83.7672
27.172853 72.589 79.6871
27.369758 72.384 75.8076
27.568091 72.136 72.1064
27.767861 71.866 68.6813
27.969078 71.582 65.4748
28.171754 71.292 62.5044
28.375898 70.997 59.6365
28.581521 70.693 56.8434
28.788635 70.370 53.9859
28.997249 70.010 51.0742
29.207375 69.598 48.0587
29.419024 69.104 45.0982
29.632206 68.510 42.3137
29.846933 67.801 39.9634
30.063216 66.975 38.4381
30.281067 66.056 38.0758
30.500496 65.093 39.3944
30.721515 64.194 42.4648
30.944136 63.455 47.3047
31.168370 62.976 53.0085
31.394229 62.739 58.7812
31.621724 62.690 64.1086
31.850868 62.738 69.0697
32.081673 62.884 74.2428
32.314150 63.176 79.7822
32.548312 63.706 85.6332
32.784170 64.500 90.7367
33.021738 65.491 94.2952
33.261027 66.564 95.9160
33.502050 67.585 95.6522
33.744819 68.493 94.1236
33.989348 69.257 91.7938
34.235649 69.880 89.1890
34.483735 70.399 86.7736
34.733618 70.869 84.6804
34.985312 71.354 82.9624
35.238830 71.911 81.4012
35.494185 72.556 79.5142
35.751391 73.263 76.9789
36.010460 73.983 73.5905
36.271407 74.657 69.2537
36.534244 75.239 64.1443
36.798987 75.703 58.5152
37.065647 76.035 52.5844
37.334240 76.237 46.5815
37.604779 76.319 40.7946
37.877279 76.305 35.4077
38.151754 76.222 30.5139
38.428217 76.102 26.1595
38.706684 75.975 22.3214
38.987168 75.863 18.8854
39.269685 75.777 15.6887
39.554250 75.715 12.6117
39.840876 75.671 9.5845
40.129579 75.637 6.5834
40.420375 75.611 3.6157
40.713278 75.597 0.6908
41.008303 75.602 -2.2180
41.305466 75.629 -5.1895
41.604782 75.677 -8.3293
41.906268 75.732 -11.7347
42.209938 75.777 -15.4615
42.515808 75.786 -19.5026
42.823895 75.738 -23.7766
43.134215 75.613 -28.1298
43.446783 75.402 -32.3428
43.761617 75.111 -36.1495
44.078731 74.764 -39.2754
44.398144 74.406 -41.5096
44.719871 74.103 -42.8137
45.043930 73.919 -43.4065
45.370337 73.894 -43.7421
45.699109 74.023 -44.3358
46.030264 74.268 -45.5560
46.363818 74.577 -47.5428
46.699789 74.910 -50.2714
47.038195 75.238 -53.6577
47.379053 75.544 -57.6211
47.722381 75.811 -62.0860
48.068197 76.025 -66.9513
48.416519 76.176 -72.0663
48.767365 76.266 -77.2415
49.120754 76.310 -82.2989
49.476703 76.340 -87.1449
49.835232 76.390 -91.8243
50.196358 76.481 -96.5105
50.560102 76.617 -101.4132
50.926481 76.783 -106.6650
51.295515 76.967 -112.2830
51.667224 77.170 -118.2412
52.041626 77.405 -124.5977
52.418741 77.682 -131.5671
52.798589 77.982 -139.4590
53.181189 78.257 -148.5130
53.566562 78.439 -158.7800
53.954727 78.460 -170.0850
54.345706 78.264 177.9422
54.739517 77.818 165.8061
55.136182 77.117 154.0914
55.535722 76.188 143.4033
55.938156 75.098 134.2784
56.343507 73.946 127.0790
56.751796 72.851 121.7672
57.163042 71.910 117.9037
57.577269 71.167 114.9832
57.994498 70.639 112.7409
58.414750 70.350 110.9991
58.838047 70.332 109.3648
59.264412 70.577 107.1837
59.693867 71.019 103.9177
60.126433 71.568 99.3561
60.562134 72.149 93.5908
61.000992 72.715 86.8083
61.443030 73.234 79.1804
61.888272 73.680 70.8879
62.336740 74.034 62.1387
62.788457 74.288 53.1623
63.243449 74.447 44.2296
63.701737 74.530 35.5366
64.163346 74.564 27.1746
64.628300 74.574 19.1325
65.096623 74.573 11.2831
65.568340 74.556 3.4785
66.043475 74.503 -4.3500
66.522053 74.390 -12.1482
67.004100 74.206 -19.7271
67.489639 73.959 -26.9244
67.978697 73.670 -33.6663
68.471298 73.359 -40.0215
68.967470 73.028 -46.1157
69.467236 72.670 -52.0137
69.970625 72.277 -57.7034
70.477661 71.842 -63.1807
70.988371 71.355 -68.4843
71.502782 70.787 -73.5653
72.020920 70.109 -78.0641
72.542814 69.321 -81.2543
73.068489 68.505 -82.2934
73.597973 67.834 -80.8440
74.131294 67.499 -77.8436
74.668480 67.569 -75.0082
75.209559 67.953 -73.7205
75.754558 68.491 -74.4310
76.303507 69.044 -77.0742
76.856434 69.499 -81.3207
77.413367 69.785 -86.6226
77.974336 69.867 -92.2566
78.539371 69.761 -97.3909
79.108499 69.534 -101.3905
79.681752 69.289 -103.9638
80.259159 69.138 -105.1743
80.840750 69.210 -105.1398
81.426555 69.656 -104.3911
82.016606 70.524 -104.7169
82.610932 71.626 -108.3371
83.209565 72.664 -115.8085
83.812535 73.426 -126.2133
84.419876 73.826 -138.2791
85.031617 73.869 -150.9915
85.647791 73.593 -163.8176
86.268430 73.033 -176.5693
86.893567 72.203 170.7410
87.523233 71.092 157.9360
88.157463 69.651 144.6583
88.796288 67.778 130.4277
89.439743 65.394 114.5271
90.087860 63.022 93.1167
90.740674 62.966 -73.4366
91.398218 65.463 -105.4236
92.060527 68.000 -126.7009
92.727636 69.715 -147.7773
93.399578 70.541 -168.6705
94.076390 70.540 171.7415
94.758106 69.841 155.0342
95.444763 68.668 142.6414
96.136395 67.334 134.6935
96.833039 66.101 129.4841
97.534731 65.039 125.3037
98.241508 64.102 121.8033
98.953406 63.264 119.1008
99.670463 62.539 117.2229
100.392717 61.970 116.0928
101.120204 61.609 115.2034
101.852962 61.456 113.8043
102.591031 61.462 111.3119
103.334448 61.536 107.2307
104.083252 61.558 101.3865
104.837482 61.419 94.1628
105.597178 61.047 86.1281
106.362378 60.388 77.7765
107.133124 59.382 69.9055
107.909455 58.005 64.1805
108.691411 56.382 63.1765
109.479034 54.926 68.9156
110.272364 54.257 78.8541
111.071443 54.570 86.5844
111.876313 55.431 89.0968
112.687014 56.358 87.1251
113.503591 57.137 82.6356
114.326085 57.757 77.1025
115.154539 58.253 70.7537
115.988996 58.615 63.5302
116.829500 58.832 55.9277
117.676095 58.933 48.2677
118.528824 58.916 40.3395
119.387733 58.731 32.1976
120.252866 58.344 24.6956
121.124268 57.809 18.9082
122.001984 57.257 15.0820
122.886061 56.784 12.3308
123.776544 56.373 9.8049
124.673480 55.966 7.6895
125.576915 55.649 7.8534
126.486897 55.837 12.4694
127.403473 56.920 18.4109
128.326691 58.580 18.8252
129.256599 60.216 12.5596
130.193246 61.510 2.1965
131.136680 62.379 -10.1141
132.086950 62.812 -23.1907
133.044107 62.820 -36.0328
134.008199 62.464 -47.7441
134.979278 61.829 -57.8995
135.957393 60.999 -66.2363
136.942597 60.076 -72.4601
137.934939 59.156 -77.1344
138.934473 58.218 -81.5032
139.941249 57.137 -84.6707
140.955321 56.048 -82.2163
141.976742 55.627 -71.7583
143.005564 56.305 -62.4458
144.041841 57.451 -62.0096
145.085627 58.359 -67.6556
146.136978 58.826 -74.9923
147.195946 58.910 -81.8593
148.262589 58.707 -87.4712
149.336961 58.328 -90.8893
150.419118 58.014 -90.6974
151.509117 58.214 -86.0319
152.607014 59.268 -79.9707
153.712868 60.885 -79.0813
154.826735 62.484 -85.1923
155.948673 63.737 -95.9467
157.078741 64.528 -109.4702
158.216999 64.801 -124.5669
159.363504 64.526 -140.2129
160.518318 63.656 -155.6470
161.681500 62.107 -169.2595
162.853110 59.879 -176.4966
164.033211 57.421 -168.9381
165.221864 55.934 -150.1765
166.419129 55.886 -142.6868
167.625071 56.206 -144.1323
168.839751 56.248 -146.8237
170.063234 56.119 -146.1014
171.295582 56.174 -142.7644
172.536860 56.428 -141.6655
173.787134 56.570 -143.6218
175.046467 56.465 -144.9825
176.314926 56.487 -140.9669
177.592576 57.353 -130.4478
178.879485 59.110 -123.0566
180.175720 61.013 -125.5040
181.481347 62.561 -134.3057
182.796436 63.654 -145.8448
184.121054 64.340 -158.4791
185.455271 64.681 -171.7069
186.799157 64.692 174.2538
188.152780 64.321 159.1318
189.516213 63.489 143.3418
190.889526 62.156 127.3928
192.272790 60.316 110.8883
193.666078 57.996 91.9719
195.069462 55.515 64.2153
196.483016 54.318 6.5375
197.906813 55.728 -50.8164
199.340927 58.259 -78.1792
200.785433 60.748 -95.0303
202.240407 62.980 -108.6538
203.705925 64.874 -122.6953
205.182062 66.309 -138.5742
206.668896 67.182 -155.8967
208.166504 67.455 -173.1594
209.674964 67.188 171.2798
211.194355 66.499 158.2144
212.724757 65.469 147.0591
214.266248 64.071 138.0610
215.818909 62.468 136.9883
217.382822 61.635 150.9312
218.958068 62.353 162.1758
220.544728 63.550 157.8784
222.142886 64.228 146.7173
223.752625 64.220 135.3765
225.374029 63.720 126.9404
227.007182 63.041 122.3455
228.652170 62.450 119.7407
230.309077 61.970 116.5620
231.977992 61.479 113.1699
233.659000 60.976 111.3074
235.352190 60.564 110.3323
237.057649 60.191 107.8918
238.775466 59.680 104.7197
240.505731 59.016 103.7559
242.248535 58.570 109.1519
244.003968 58.781 116.0791
245.772121 59.379 116.5259
247.553087 59.910 113.5962
249.346959 60.421 112.2739
251.153830 61.147 111.5032
252.973794 62.062 108.4309
254.806946 62.891 101.2107
256.653383 63.288 89.8252
258.513199 63.077 77.9158
260.386492 62.369 69.2668
262.273360 61.551 66.5083
264.173901 61.162 67.6145
266.088214 61.391 67.3098
268.016399 61.931 62.6248
269.958556 62.334 53.0437
271.914787 62.392 41.6160
273.885194 62.037 27.9753
275.869879 60.969 11.1531
277.868945 58.920 -0.6904
279.882498 56.475 18.3118
281.910642 55.488 51.7402
283.953483 56.101 52.5459
286.011127 56.832 47.3643
288.083682 57.257 42.4548
290.171255 57.476 38.9209
292.273955 57.892 39.5820
294.391893 58.911 42.2153
296.525178 60.311 39.7373
298.673921 61.482 29.5879
300.838236 62.015 14.8279
303.018234 61.850 0.2405
305.214029 61.174 -11.7600
307.425735 60.099 -22.6702
309.653469 58.583 -30.3677
311.897346 56.887 -29.2930
314.157482 55.864 -20.9546
316.433997 56.434 -10.5403
318.727008 58.451 -0.4175
321.036636 60.575 -5.6912
323.362999 61.696 -25.5251
325.706221 61.533 -46.5659
328.066422 60.582 -58.0449
330.443727 59.684 -64.4565
332.838258 58.984 -73.4001
335.250142 58.418 -77.6384
337.679502 58.440 -77.6616
340.126467 59.131 -80.8557
342.591164 60.055 -88.5083
345.073721 60.832 -99.7246
347.574267 61.479 -110.2212
350.092934 62.235 -120.0964
352.629851 63.126 -131.5793
355.185153 64.014 -145.2227
357.758971 64.675 -161.6545
360.351440 64.879 179.9050
362.962695 64.612 163.0762
365.592872 64.265 151.1138
368.242109 64.165 139.0872
370.910543 63.957 122.3745
373.598313 63.166 104.8188
376.305561 61.768 92.4641
379.032426 60.199 87.7856
381.779051 58.902 84.0476
384.545580 57.892 79.9243
387.332155 57.760 89.0300
390.138924 59.335 106.8586
392.966031 61.401 101.2065
395.813625 62.824 83.6243
398.681854 63.368 62.4167
401.570867 63.016 41.8145
404.480815 62.309 37.5999
407.411850 62.360 40.7219
410.364124 62.723 21.6367
413.337791 62.418 -5.4634
416.333007 61.408 -36.3525
419.349928 60.394 -78.9885
422.388711 60.408 89.6626
425.449513 61.065 48.0405
428.532496 61.308 16.7095
431.637819 61.119 -5.8154
434.765644 60.972 -23.9409
437.916136 61.069 -41.5234
441.089456 61.299 -61.7600
444.285772 61.269 -86.3999
447.505250 60.662 -112.0049
450.748058 59.821 -129.5063
454.014364 59.810 -140.7039
457.304339 60.381 -162.7424
460.618155 60.404 169.2078
463.955984 59.623 143.6189
467.318000 58.297 122.9575
470.704379 56.764 108.1289
474.115297 55.387 96.7625
477.550932 54.267 84.7415
481.011463 53.373 75.2476
484.497070 53.812 93.9385
488.007936 56.010 101.2395
491.544242 57.902 77.8940
495.106175 58.249 41.6843
498.693918 56.936 3.6501
502.307660 54.433 -31.1299
505.947588 52.154 -21.4978
509.613893 53.297 -7.8845
513.306765 56.822 -65.8784
517.026398 59.858 -123.5444
520.772984 61.532 -173.8562
524.546720 61.752 144.9785
528.347802 61.227 119.1763
532.176428 61.050 101.5398
536.032797 61.086 80.1516
539.917112 60.759 58.6389
543.829574 60.100 39.7295
547.770387 59.583 25.5818
551.739757 59.966 17.6345
555.737891 60.887 -4.7610
559.764997 61.346 -40.7378
563.821285 61.310 -83.9158
567.906966 60.871 -134.0347
572.022254 60.238 175.1199
576.167363 59.721 127.9443
580.342509 59.239 85.4971
584.547910 58.594 45.2800
588.783786 57.613 6.2764
593.050356 56.800 -28.6541
597.347843 56.975 -67.7581
601.676472 57.525 -114.2212
606.036467 57.855 -157.1448
610.428057 57.804 165.6038
614.851471 57.113 133.3337
619.306938 55.958 116.0815
623.794691 55.997 129.1287
628.314965 57.208 118.0310
632.867994 57.408 86.9080
637.454017 55.935 62.1831
642.073271 53.725 93.7329
646.725999 52.216 103.3147
651.412442 51.891 98.4192
656.132845 54.002 126.6555
660.887454 57.138 146.9766
665.676517 59.188 124.6758
670.500283 59.701 95.2710
675.359005 59.031 71.9734
680.252935 57.838 51.8354
685.182328 56.174 25.5752
690.147441 54.473 -13.9639
695.148534 54.981 -145.0454
700.185867 57.429 169.5811
705.259702 59.565 141.7910
710.370305 60.669 116.9604
715.517941 60.835 96.7827
720.702879 60.479 83.6069
725.925389 60.010 73.7881
731.185744 59.407 64.6416
736.484217 58.772 60.0439
741.821085 58.371 57.5391
747.196627 57.790 49.4580
752.611121 56.751 52.8447
758.064852 56.577 69.8110
763.558102 57.893 77.2764
769.091159 59.651 75.0977
774.664311 61.069 66.2441
780.277848 61.875 53.6523
785.932063 62.040 40.4844
791.627250 61.768 29.6958
797.363708 61.683 27.5244
803.141734 62.627 30.9546
808.961630 63.980 20.0312
814.823699 64.495 -2.7778
820.728248 63.972 -26.6489
826.675583 62.856 -50.7437
832.666015 61.390 -78.8711
838.699856 60.111 -116.3315
844.777421 59.669 -174.6182
850.899026 59.749 127.1030
857.064992 59.944 91.6821
863.275638 60.699 71.5566
869.531289 61.627 49.8716
875.832271 62.118 27.8394
882.178913 62.090 5.2490
888.571545 61.057 -19.3403
895.010500 58.762 -34.2207
901.496116 56.064 -42.2671
908.028728 54.075 -67.1362
914.608678 54.174 167.8887
921.236310 56.521 103.5303
927.911968 59.095 77.5654
934.636001 61.064 56.5830
941.408758 61.954 32.5879
948.230594 61.637 11.4688
955.101864 60.791 -0.1104
962.022926 60.346 -6.3608
968.994141 60.318 -17.1128
976.015872 59.802 -33.2192
983.088485 58.552 -47.4375
990.212349 56.802 -60.2114
997.387836 55.238 -29.5093
1004.615320 55.394 -4.6567
1011.895176 56.379 -17.1250
1019.227786 56.655 -35.4468
1026.613531 55.999 -45.3462
1034.052795 55.488 -44.6885
1041.545968 55.049 -60.0669
1049.093440 53.474 -76.3276
1056.695603 51.112 -60.3599
1064.352855 49.780 -40.3267
1072.065595 49.467 -48.5571
1079.834224 49.513 -59.4604
1087.659148 50.775 -33.9795
1095.540774 53.086 8.8901
1103.479514 54.997 -14.4697
1111.475782 55.946 -43.2036
1119.529994 55.955 -70.9658
1127.642569 55.929 -93.6455
1135.813932 56.494 -120.6187
1144.044508 56.416 -160.3955
1152.334726 55.080 164.3584
1160.685019 54.284 146.6641
1169.095821 55.605 126.0898
1177.567571 57.599 101.2158
1186.100711 59.047 72.6934
1194.695686 59.425 42.7925
1203.352943 58.873 21.7656
1212.072935 58.481 15.7773
1220.856115 58.601 0.5693
1229.702942 58.141 -20.5166
1238.613876 57.009 -36.9688
1247.589383 55.464 -53.0293
1256.629930 53.353 -65.1860
1265.735988 51.534 -62.8755
1274.908033 51.788 -26.1855
1284.146542 53.157 -30.8066
1293.451997 53.870 -54.2817
1302.824884 53.676 -80.0537
1312.265690 52.801 -103.2749
1321.774908 52.060 -127.3032
1331.353034 51.762 -162.5044
1341.000567 52.400 158.8818
1350.718010 54.051 117.2378
1360.505869 54.977 70.0693
1370.364656 54.581 25.3354
1380.294883 53.661 -15.1074
1390.297068 53.466 101.6919
1400.371734 54.493 75.9380
1410.519405 55.484 41.8374
1420.740610 55.670 14.9937
1431.035882 55.744 -0.2163
1441.405758 55.688 -22.7114
1451.850778 55.150 -27.3794
1462.371488 55.382 32.4663
1472.968434 55.856 9.3740
1483.642171 55.512 -12.4634
1494.393253 55.169 -21.6060
1505.222243 55.853 -28.0762
1516.129704 56.590 -45.2129
1527.116205 56.105 -68.0264
1538.182318 54.812 -83.6064
1549.328621 53.668 -92.8052
1560.555695 53.595 -73.2266
1571.864125 54.796 -86.2607
1583.254500 55.679 -128.1738
1594.727415 55.165 167.8281
1606.283467 53.159 64.3628
1617.923260 51.490 34.4834
1629.647399 51.841 21.3936
1641.456495 53.071 -5.0752
1653.351166 53.907 -31.3486
1665.332030 54.154 -49.6992
1677.399712 53.998 -69.4292
1689.554842 53.819 -80.9785
1701.798053 54.181 -101.3159
1714.129983 53.740 -140.3423
1726.551276 53.307 7.1543
1739.062578 53.979 -22.6055
1751.664542 54.717 -45.2563
1764.357825 55.702 -56.4097
1777.143090 56.892 -74.4434
1790.021001 57.347 -101.0928
1802.992231 57.048 -128.6118
1816.057456 56.219 -150.8384
1829.217357 54.788 -140.7349
1842.472620 52.692 -149.7656
1855.823936 51.337 -109.0444
1869.272001 52.131 -106.7661
1882.817517 53.314 -151.1875
1896.461189 54.353 128.2129
1910.203728 55.538 23.1802
1924.045852 55.849 -42.0020
1937.988281 54.692 -86.3975
1952.031743 52.558 -105.6328
1966.176970 51.009 -113.9863
1980.424699 51.517 -124.8667
1994.775672 53.640 -105.0054
2009.230639 55.159 -24.6074
2023.790353 55.476 -48.1411
2038.455572 56.197 -58.9751
2053.227061 57.149 -84.5371
2068.105591 57.161 -114.1304
2083.091937 56.562 -140.5649
2098.186879 55.895 -168.2612
2113.391207 54.378 -170.5356
2128.705710 52.482 -75.6396
2144.131189 52.128 -93.7896
2159.668448 52.887 -110.3794
2175.318296 53.184 -125.0488
2191.081549 52.425 -138.2192
2206.959029 51.260 -118.2017
2222.951564 50.638 -100.7275
2239.059987 51.340 -84.6328
2255.285139 53.067 -82.4595
2271.627865 54.948 -92.5908
2288.089017 56.367 -107.8467
2304.669453 57.271 -125.4272
2321.370038 57.137 -142.9653
2338.191642 56.362 -145.4243
2355.135142 55.803 -156.9541
2372.201423 55.317 -175.3184
2389.391372 54.953 160.1143
2406.705887 55.320 112.2437
2424.145870 56.530 -32.1001
2441.712230 57.707 -90.0244
2459.405883 58.532 -127.7007
2477.227752 59.060 -164.9756
2495.178766 59.248 147.5586
2513.259860 59.365 52.0020
2531.471977 58.889 -63.6582
2549.816066 57.405 -102.1943
2568.293084 56.082 -122.6816
2586.903995 55.791 -139.8096
2605.649767 55.779 -156.5083
2624.531380 55.343 -156.4399
2643.549816 55.928 -140.9072
2662.706068 57.056 -154.7427
2682.001134 56.723 170.7188
2701.436019 54.910 137.0356
2721.011738 53.312 -93.1367
2740.729311 52.425 -117.7197
2760.589765 51.777 -135.6396
