* Measurement data measured by REW V5.31
* Source: Scarlett 2i4 USB, MICROPHONE, R, volume: no control. Timing signal peak level -31.3 dBFS, measurement signal peak level -23.0 dBFS
* Format: 512k Log Swept Sine, 1 sweep at -18.0 dBFS using an acoustic timing reference
* Dated: Apr 16, 2024 9:50:08 AM
* REW Settings:
*  C-weighting compensation: Off
*  Target level: 75.0 dB
* Note: ; Delay -3.8249 ms (-1.312 m, -(4 ft 3.7 in)) using IR start time relative to Acoustic reference played from SPEAKER L with no timing offset
* Measurement: ottoman-p1-rl
* Smoothing: 1/48 octave
* Frequency Step: 96 ppo
* Start Frequency: 10.093689 Hz
*
* Freq(Hz) SPL(dB) Phase(degrees)
10.093689 12.036 -93.8692
10.166832 11.555 -91.7529
10.240505 10.963 -88.3357
10.314712 10.356 -83.1777
10.389457 9.809 -76.0146
10.464743 9.602 -67.1071
10.540575 9.970 -56.7583
10.616956 10.684 -46.7589
10.693891 11.574 -38.8539
10.771383 12.542 -33.7725
10.849437 13.621 -30.7216
10.928057 14.815 -29.0208
11.007246 16.014 -28.5279
11.087009 17.104 -29.0938
11.167350 18.038 -30.5611
11.248273 18.864 -32.5945
11.329783 19.601 -34.9772
11.411883 20.262 -37.6056
11.494578 20.848 -40.5380
11.577873 21.353 -43.8819
11.661771 21.782 -47.3932
11.746277 22.146 -50.8955
11.831395 22.448 -54.4282
11.917130 22.682 -58.3000
12.003487 22.851 -62.2798
12.090469 22.956 -66.1268
12.178081 23.000 -69.8662
12.266329 22.978 -73.8583
12.355216 22.890 -77.8733
12.444747 22.733 -81.6144
12.534926 22.506 -85.1578
12.625760 22.208 -88.7667
12.717251 21.835 -92.2010
12.809406 21.381 -95.1120
12.902228 20.835 -97.5822
12.995723 20.214 -99.6366
13.089895 19.544 -101.0224
13.184750 18.818 -101.3211
13.280292 18.021 -100.2290
13.376526 17.286 -97.7338
13.473458 16.783 -94.0484
13.571093 16.558 -88.7709
13.669434 16.579 -82.5329
13.768489 16.848 -76.9833
13.868261 17.399 -73.0458
13.968756 18.210 -70.3074
14.069979 19.106 -69.0970
14.171936 19.938 -69.4784
14.274632 20.723 -71.0445
14.378072 21.457 -73.3707
14.482261 22.109 -76.2476
14.587206 22.668 -79.8193
14.692910 23.146 -83.8270
14.799381 23.546 -87.9223
14.906624 23.870 -92.2719
15.014643 24.116 -96.9569
15.123446 24.290 -101.5775
15.233036 24.392 -106.1579
15.343421 24.421 -110.9816
15.454606 24.378 -115.6845
15.566596 24.263 -120.1804
15.679398 24.073 -124.7952
15.793018 23.805 -129.2397
15.907460 23.457 -133.3808
16.022732 23.026 -137.4822
16.138840 22.501 -141.3301
16.255788 21.877 -144.7775
16.373585 21.148 -147.9527
16.492234 20.284 -150.6867
16.611744 19.278 -152.7459
16.732119 18.109 -153.9903
16.853367 16.710 -154.0827
16.975494 14.987 -152.1023
17.098505 13.218 -146.6678
17.222408 11.808 -135.3708
17.347209 10.854 -114.4518
17.472914 10.763 -88.6935
17.599530 11.930 -69.8822
17.727063 13.878 -59.6197
17.855521 15.726 -54.8528
17.984909 17.263 -53.0788
18.115235 18.593 -52.9353
18.246506 19.710 -53.7880
18.378727 20.621 -55.3761
18.511907 21.371 -57.2495
18.646052 21.973 -59.4439
18.781169 22.434 -61.8030
18.917265 22.771 -64.0471
19.054347 22.982 -66.3868
19.192423 23.078 -68.4637
19.331499 23.062 -70.3038
19.471583 22.942 -71.8584
19.612682 22.730 -72.8467
19.754804 22.433 -73.3301
19.897956 22.080 -73.1513
20.042144 21.680 -72.1454
20.187378 21.274 -70.4143
20.333664 20.891 -67.8885
20.481010 20.550 -64.6475
20.629424 20.282 -61.0459
20.778913 20.082 -57.0705
20.929486 19.933 -53.0584
21.081150 19.827 -49.0635
21.233912 19.735 -44.9788
21.387782 19.643 -40.8300
21.542767 19.564 -36.3185
21.698874 19.504 -31.2995
21.856113 19.517 -25.7218
22.014492 19.656 -19.5482
22.174018 19.948 -13.1567
22.334700 20.432 -7.0180
22.496546 21.078 -1.5601
22.659566 21.832 2.6599
22.823766 22.653 5.6981
22.989157 23.461 7.3330
23.155745 24.228 7.8902
23.323542 24.904 7.3932
23.492554 25.473 6.0989
23.662790 25.906 4.2146
23.834261 26.189 1.8415
24.006973 26.299 -0.5875
24.180938 26.221 -3.0430
24.356163 25.932 -4.7473
24.532658 25.445 -5.4645
24.710431 24.788 -3.7696
24.889493 24.185 1.1820
25.069853 23.984 10.8511
25.251519 24.494 23.0063
25.434502 25.897 33.7687
25.618811 27.693 39.3347
25.804456 29.575 40.6634
25.991445 31.308 38.5813
26.179790 32.827 34.5476
26.369500 34.128 29.1463
26.560584 35.221 22.9786
26.753053 36.122 16.3129
26.946917 36.843 9.5502
27.142185 37.396 2.6642
27.338869 37.796 -3.8270
27.536977 38.052 -10.0917
27.736522 38.184 -15.6077
27.937512 38.214 -20.4498
28.139959 38.168 -24.2939
28.343872 38.098 -27.0930
28.549264 38.044 -28.7491
28.756143 38.075 -29.4170
28.964522 38.225 -29.3643
29.174411 38.523 -28.9232
29.385821 38.949 -28.6686
29.598763 39.478 -28.7841
29.813248 40.058 -29.5581
30.029287 40.650 -30.9985
30.246891 41.220 -33.0647
30.466073 41.739 -35.7124
30.686842 42.186 -38.8054
30.909212 42.544 -42.2998
31.133193 42.792 -46.0184
31.358797 42.915 -49.7875
31.586035 42.900 -53.5075
31.814921 42.738 -56.7636
32.045465 42.435 -59.2464
32.277680 42.017 -60.5663
32.511577 41.553 -60.0991
32.747169 41.182 -57.6583
32.984469 41.044 -53.3922
33.223488 41.277 -48.3582
33.464239 41.844 -44.2523
33.706735 42.619 -41.8858
33.950987 43.447 -41.4661
34.197010 44.203 -42.6139
34.444816 44.843 -44.6908
34.694417 45.356 -47.2591
34.945827 45.758 -49.9184
35.199059 46.089 -52.3452
35.454126 46.390 -54.5029
35.711041 46.696 -56.4443
35.969818 47.033 -58.3253
36.230470 47.398 -60.4346
36.493011 47.770 -62.9417
36.757455 48.117 -65.8925
37.023814 48.409 -69.2577
37.292104 48.622 -72.8993
37.562338 48.744 -76.5754
37.834530 48.779 -80.0825
38.108695 48.743 -83.2493
38.384846 48.660 -85.9386
38.662999 48.560 -88.0885
38.943167 48.472 -89.7659
39.225365 48.414 -91.1089
39.509608 48.391 -92.2539
39.795911 48.398 -93.2983
40.084289 48.429 -94.2759
40.374756 48.484 -95.1632
40.667328 48.572 -95.9404
40.962020 48.713 -96.6885
41.258848 48.916 -97.6130
41.557827 49.171 -98.9819
41.858972 49.447 -101.0236
42.162299 49.694 -103.8397
42.467824 49.864 -107.3722
42.775564 49.911 -111.4177
43.085533 49.807 -115.6637
43.397749 49.542 -119.7292
43.712227 49.125 -123.2076
44.028983 48.589 -125.7331
44.348036 47.987 -127.0516
44.669400 47.386 -127.1053
44.993093 46.847 -126.0761
45.319131 46.406 -124.3100
45.647532 46.068 -122.1387
45.978313 45.823 -119.7421
46.311491 45.664 -117.1677
46.647083 45.593 -114.4559
46.985107 45.615 -111.7344
47.325581 45.723 -109.1946
47.668521 45.898 -106.9901
48.013947 46.113 -105.1669
48.361876 46.348 -103.6773
48.712326 46.593 -102.4370
49.065315 46.843 -101.3630
49.420863 47.099 -100.3779
49.778987 47.370 -99.4098
50.139706 47.670 -98.4159
50.503039 48.019 -97.4241
50.869005 48.434 -96.5510
51.237623 48.923 -95.9786
51.608912 49.483 -95.9118
51.982891 50.100 -96.5673
52.359580 50.751 -98.1857
52.739000 51.394 -101.0066
53.121168 51.968 -105.1821
53.506106 52.401 -110.6822
53.893833 52.622 -117.2763
54.284370 52.569 -124.5424
54.677737 52.197 -131.8639
55.073955 51.484 -138.4303
55.473043 50.451 -143.2301
55.875024 49.184 -145.1302
56.279917 47.868 -143.2096
56.687745 46.769 -137.6699
57.098527 46.105 -130.3530
57.512287 45.904 -123.3383
57.929045 46.053 -117.6086
58.348822 46.429 -113.5179
58.771642 46.909 -111.3228
59.197525 47.371 -111.0115
59.626495 47.730 -112.2012
60.058573 47.944 -114.4422
60.493782 48.000 -117.5170
60.932145 47.871 -121.5091
61.373685 47.489 -126.5691
61.818424 46.740 -132.5660
62.266386 45.483 -138.8486
62.717593 43.578 -144.1671
63.172071 40.957 -145.3821
63.629842 38.199 -127.8254
64.090930 37.677 -44.2435
64.555359 40.020 -18.7950
65.023154 42.805 -13.5476
65.494339 45.236 -12.2235
65.968938 47.293 -12.7485
66.446976 49.036 -14.4496
66.928478 50.524 -16.7985
67.413469 51.812 -19.4481
67.901975 52.939 -22.2998
68.394021 53.919 -25.3431
68.889632 54.757 -28.4230
69.388835 55.477 -31.1543
69.891655 56.142 -33.2137
70.398118 56.825 -34.6681
70.908252 57.561 -36.0462
71.422083 58.319 -37.9106
71.939636 59.053 -40.3158
72.460941 59.747 -42.9736
72.986023 60.424 -45.7649
73.514909 61.090 -48.9725
74.047629 61.704 -52.9587
74.584208 62.199 -57.7444
75.124676 62.526 -62.9211
75.669061 62.674 -68.0012
76.217390 62.654 -72.5431
76.769692 62.494 -76.1475
77.325997 62.249 -78.2771
77.886333 62.038 -78.4444
78.450730 62.012 -76.9745
79.019216 62.242 -75.2451
79.591822 62.646 -74.5654
80.168577 63.095 -74.9445
80.749512 63.541 -75.6696
81.334656 64.020 -76.2988
81.924040 64.568 -77.1646
82.517696 65.159 -78.8865
83.115653 65.719 -81.7194
83.717943 66.181 -85.3860
84.324598 66.525 -89.3507
84.935649 66.769 -93.1963
85.551128 66.946 -96.8012
86.171066 67.075 -100.2444
86.795497 67.158 -103.4771
87.424453 67.222 -106.1534
88.057967 67.342 -108.0429
88.696071 67.595 -109.6508
89.338800 67.972 -112.0300
89.986185 68.374 -115.8101
90.638262 68.697 -120.7991
91.295065 68.893 -126.4201
91.956626 68.964 -132.1813
92.622982 68.943 -137.8676
93.294166 68.859 -143.5597
93.970214 68.715 -149.4895
94.651161 68.489 -155.7701
95.337042 68.156 -162.2694
96.027894 67.710 -168.7680
96.723752 67.164 -175.1897
97.424652 66.530 178.3244
98.130631 65.794 171.5316
98.841726 64.921 164.3014
99.557974 63.867 156.7401
100.279412 62.609 149.0533
101.006078 61.147 141.2807
101.738010 59.508 133.0648
102.475245 57.743 123.2437
103.217823 55.911 109.4345
103.965782 54.076 88.4750
104.719161 52.388 58.3868
105.477999 51.193 24.8149
106.242336 50.881 0.5098
107.012212 51.549 -10.8905
107.787666 52.938 -14.2664
108.568740 54.653 -15.1642
109.355474 56.429 -15.9760
110.147909 58.151 -17.4055
110.946086 59.747 -19.8857
111.750047 61.183 -23.1215
112.559834 62.467 -26.7330
113.375489 63.592 -30.9678
114.197055 64.521 -35.7324
115.024574 65.276 -40.1624
115.858089 65.952 -43.6626
116.697645 66.638 -46.5353
117.543284 67.351 -49.5624
118.395051 68.039 -53.3712
119.252990 68.626 -57.9585
120.117147 69.081 -62.7274
120.987565 69.434 -67.0984
121.864291 69.739 -70.9741
122.747370 70.034 -74.5939
123.636848 70.332 -78.2348
124.532771 70.623 -82.1448
125.435187 70.894 -86.3833
126.344142 71.135 -91.0248
127.259684 71.312 -96.5590
128.181860 71.342 -103.1384
129.110718 71.165 -110.2017
130.046308 70.760 -117.4572
130.988677 70.084 -124.8486
131.937875 69.083 -131.7218
132.893951 67.735 -137.2466
133.856956 66.030 -140.8379
134.826938 63.947 -141.2697
135.803950 61.554 -135.9686
136.788041 59.394 -118.5425
137.779264 59.183 -75.2175
138.777669 61.444 -41.4768
139.783309 64.213 -34.2974
140.796237 66.537 -36.3475
141.816504 68.317 -41.6178
142.844165 69.624 -47.9651
143.879273 70.557 -54.3264
144.921881 71.203 -60.2352
145.972045 71.653 -65.2338
147.029819 71.999 -69.2733
148.095257 72.292 -72.9406
149.168417 72.536 -76.4683
150.249353 72.761 -79.4997
151.338121 73.017 -82.2744
152.434780 73.286 -85.8865
153.539385 73.436 -91.2203
154.651995 73.288 -97.9836
155.772667 72.737 -104.1727
156.901460 71.863 -107.1127
158.038432 70.924 -105.9039
159.183644 70.151 -102.6770
160.337154 69.593 -98.7274
161.499023 69.325 -92.4075
162.669312 69.541 -84.1598
163.848081 70.250 -77.3817
165.035392 71.201 -74.1320
166.231306 72.132 -74.0163
167.435887 72.949 -75.1930
168.649196 73.694 -76.6482
169.871298 74.401 -78.8075
171.102255 75.056 -81.9049
172.342133 75.654 -85.5571
173.590995 76.175 -90.2473
174.848907 76.520 -96.5253
176.115934 76.583 -103.6643
177.392143 76.344 -110.2582
178.677599 75.873 -115.1799
179.972371 75.301 -118.0857
181.276525 74.774 -119.0409
182.590129 74.450 -118.3304
183.913252 74.407 -117.8634
185.245964 74.507 -119.9619
186.588332 74.495 -124.6436
187.940428 74.196 -130.5469
189.302322 73.531 -136.4654
190.674085 72.461 -141.2966
192.055788 71.004 -142.9377
193.447503 69.430 -136.9688
194.849303 68.579 -119.6843
196.261262 69.251 -101.1590
197.683452 70.891 -93.1335
199.115948 72.546 -94.5909
200.558824 73.736 -102.2242
202.012156 74.273 -113.0958
203.476019 74.114 -124.3156
204.950490 73.325 -133.2502
206.435646 72.105 -137.1364
207.931564 70.951 -132.8857
209.438322 70.671 -122.1635
210.955998 71.499 -115.1489
212.484672 72.702 -117.6361
214.024424 73.541 -128.0864
215.575333 73.654 -142.8865
217.137481 72.926 -158.5432
218.710948 71.372 -172.4386
220.295818 69.050 176.5135
221.892172 66.049 171.0601
223.500094 63.160 -157.7270
225.119668 62.874 -86.5732
226.750978 64.858 -82.3678
228.394109 66.724 -89.6554
230.049147 67.841 -100.2588
231.716178 68.294 -110.0564
233.395289 68.404 -116.8414
235.086567 68.387 -123.2622
236.790102 68.146 -131.6624
238.505980 67.581 -139.3160
240.234293 66.890 -144.0383
241.975130 66.319 -148.6981
243.728581 65.788 -156.8329
245.494739 64.962 -168.5399
247.273695 63.628 179.9870
249.065542 61.927 171.5211
250.870374 60.258 164.5466
252.688284 59.053 155.5248
254.519367 58.488 140.1479
256.363720 58.160 115.1116
258.221437 57.319 83.2662
260.092616 55.519 55.4489
261.977354 53.586 45.4982
263.875750 54.167 109.6068
265.787903 57.227 137.7686
267.713911 60.615 126.7780
269.653877 63.661 115.7681
271.607900 66.125 102.6486
273.576083 67.780 85.7122
275.558528 68.582 68.8115
277.555338 68.824 56.9423
279.566619 68.940 50.4059
281.592474 69.165 46.0393
283.633009 69.536 42.8282
285.688331 70.049 40.0541
287.758546 70.654 36.6536
289.843763 71.280 32.2949
291.944090 71.906 27.6883
294.059638 72.443 21.0497
296.190515 72.615 10.8409
298.336833 72.264 1.2055
300.498705 71.733 -1.4183
302.676243 71.561 -1.9238
304.869559 71.535 -9.5352
307.078770 71.002 -22.4448
309.303989 69.581 -34.0897
311.545334 67.417 -32.4329
313.802919 65.366 -15.9386
316.076865 64.116 -8.5930
318.367288 63.393 -2.1761
320.674309 63.330 10.7515
322.998047 64.268 24.9806
325.338624 65.753 33.3079
327.696162 66.726 24.9961
330.070783 66.607 11.9670
332.462612 65.431 3.9971
334.871773 63.803 10.7963
337.298392 63.350 35.6732
339.742595 65.125 66.6271
342.204510 67.721 72.0641
344.684265 69.990 66.3882
347.181989 71.482 53.2797
349.697813 71.922 35.8859
352.231868 71.401 22.8613
354.784285 70.537 19.2314
357.355198 69.821 15.3939
359.944741 68.962 7.9700
362.553049 67.941 10.6113
365.180258 67.522 22.1679
367.826505 67.576 19.9108
370.491927 67.386 14.3528
373.176665 67.274 17.5704
375.880856 67.799 22.3086
378.604644 68.383 14.1834
381.348169 68.339 1.0952
384.111575 67.920 -7.0753
386.895006 67.741 -13.1965
389.698607 67.395 -31.8009
392.522524 65.879 -54.9249
395.366904 63.185 -61.6680
398.231895 60.618 -66.2147
401.117648 59.515 -104.2504
404.024312 59.640 -172.7513
406.952038 60.145 127.7036
409.900981 60.133 87.6580
412.871292 59.265 58.8549
415.863128 57.572 37.6700
418.876643 55.389 33.8339
421.911996 54.074 41.9889
424.969344 54.148 18.8667
428.048847 54.333 -38.1410
431.150666 54.527 -113.6127
434.274961 55.499 -150.9087
437.421897 56.442 -179.2122
440.591636 56.681 161.5869
443.784345 57.225 167.7791
447.000189 58.417 164.1770
450.239337 58.997 144.0713
453.501956 58.237 122.4717
456.788219 56.155 109.6481
460.098294 53.276 112.3944
463.432356 50.869 148.1873
466.790578 50.462 171.0227
470.173135 51.425 177.2568
473.580203 52.638 -178.0940
477.011961 53.225 173.0826
480.468586 53.192 171.8719
483.950259 54.014 -155.7201
487.457163 55.556 -157.3458
490.989478 56.264 -178.4279
494.547390 55.573 159.6779
498.131084 54.074 -168.7592
501.740748 53.319 -133.5508
505.376568 53.731 -137.5162
509.038735 54.864 -132.6296
512.727439 56.020 -137.0128
516.442874 56.385 -149.6520
520.185232 56.145 -154.2913
523.954708 56.227 -148.0208
527.751500 56.558 -153.2610
531.575805 56.405 -162.3353
535.427822 56.131 -160.4568
539.307753 56.355 -161.2107
543.215800 57.231 -156.2344
547.152165 58.717 -149.8323
551.117055 59.729 -165.7946
555.110677 59.834 176.0846
559.133237 59.711 170.1100
563.184947 60.341 173.2721
567.266018 61.186 160.3079
571.376661 61.437 143.3906
575.517092 61.167 129.3798
579.687526 60.624 120.0233
583.888181 60.097 114.2478
588.119275 59.683 107.0371
592.381030 60.004 112.3164
596.673667 61.951 141.3180
600.997410 64.428 137.5905
605.352485 66.430 122.0260
609.739119 67.913 105.3357
614.157540 68.755 84.8109
618.607979 68.778 62.0925
623.090667 67.908 38.5980
627.605839 66.038 16.2574
632.153730 63.280 -0.8718
636.734576 60.467 46.5549
641.348617 59.271 83.2788
645.996094 59.609 84.7015
650.677248 61.034 96.2106
655.392323 62.998 94.2429
660.141566 64.809 84.7949
664.925224 65.998 68.0116
669.743546 66.652 50.2936
674.596784 66.907 29.8419
679.485191 66.609 4.7120
684.409020 65.606 -25.4362
689.368530 63.728 -63.6813
694.363979 61.042 -124.6068
699.395626 58.942 118.6155
704.463736 59.226 77.9406
709.568570 61.079 57.9952
714.710396 63.103 37.5055
719.889483 64.736 14.6904
725.106099 65.803 -10.0283
730.360516 66.033 -36.3024
735.653010 65.566 -56.2771
740.983855 64.858 -74.5703
746.353329 63.589 -93.6987
751.761713 61.732 -97.8672
757.209288 60.524 -87.3306
762.696339 60.650 -86.3396
768.223151 61.277 -92.6135
773.790013 62.273 -91.5464
779.397214 63.391 -98.0649
785.045047 63.640 -117.4653
790.733808 62.763 -134.4165
796.463791 61.366 -140.5098
802.235296 60.736 -133.2788
808.048623 61.490 -129.4697
813.904077 62.398 -142.6733
819.801961 62.937 -157.1162
825.742584 63.364 -173.6475
831.726255 63.341 163.4014
837.753287 62.788 139.4434
843.823992 61.569 112.6394
849.938689 59.478 92.1626
856.097695 57.155 81.3340
862.301332 55.028 68.5415
868.549922 53.695 97.4583
874.843793 55.522 125.4092
881.183272 59.249 -159.4673
887.568689 62.598 171.8486
894.000378 64.687 132.3218
900.478673 65.355 90.5886
907.003913 64.731 49.1191
913.576437 63.199 6.5708
920.196588 61.134 -45.2312
926.864712 58.531 -111.5227
933.581156 56.000 -166.5042
940.346270 55.389 161.0693
947.160407 56.634 138.8032
954.023921 58.783 135.1689
960.937172 60.685 112.8186
967.900519 61.346 76.7734
974.914325 60.882 41.8992
981.978956 59.532 10.9751
989.094780 57.855 -3.7937
996.262169 57.315 1.1584
1003.481495 58.934 57.6663
1010.753136 61.398 45.9890
1018.077470 63.561 23.7307
1025.454879 65.273 1.6777
1032.885748 65.849 -30.0093
1040.370463 65.137 -60.8225
1047.909417 63.711 -86.6755
1055.503000 62.415 -111.4656
1063.151610 61.896 -143.8381
1070.855645 61.889 172.4160
1078.615506 61.741 125.1738
1086.431599 60.905 85.9722
1094.304330 59.664 78.0459
1102.234110 59.008 75.9302
1110.221353 58.509 60.8240
1118.266475 57.711 47.7888
1126.369895 56.905 61.2629
1134.532035 56.550 54.5527
1142.753322 56.096 40.6362
1151.034184 56.014 51.9585
1159.375052 56.846 -22.8789
1167.776361 58.535 -131.3381
1176.238550 60.076 -176.0747
1184.762060 60.308 148.0498
1193.347334 58.724 120.6975
1201.994821 55.849 114.4360
1210.704971 53.799 145.4915
1219.478238 54.650 -158.1484
1228.315080 56.020 -170.7402
1237.215957 56.022 162.2246
1246.181334 54.720 140.6023
1255.211678 53.270 -124.4131
1264.307459 53.484 -122.6521
1273.469152 55.333 -137.3577
1282.697235 57.129 -177.2178
1291.992188 57.830 108.3115
1301.354495 57.754 40.7703
1310.784647 58.071 0.6040
1320.283132 58.188 -36.8381
1329.850448 57.568 -62.8164
1339.487093 57.139 48.3152
1349.193569 57.213 25.0674
1358.970381 56.917 6.5928
1368.818041 55.935 1.8213
1378.737061 54.962 22.4702
1388.727958 54.525 26.6287
1398.791253 54.079 20.7432
1408.927471 54.063 27.3704
1419.137140 55.546 80.7495
1429.420793 56.877 70.7048
1439.778965 57.296 28.1304
1450.212197 58.251 -150.0442
1460.721033 59.974 168.7690
1471.306019 60.707 143.6064
1481.967709 60.480 -161.0579
1492.706658 60.139 176.7969
1503.523426 59.764 144.4919
1514.418576 59.050 91.7637
1525.392678 58.466 -22.5762
1536.446302 59.033 -70.9104
1547.580025 59.351 -98.3623
1558.794428 58.771 -111.1204
1570.090095 58.650 -93.3792
1581.467615 59.507 -94.0417
1592.927581 59.572 -125.7852
1604.470591 58.522 126.3076
1616.097246 57.686 -3.4097
1627.808153 57.738 -17.8096
1639.603922 58.347 -27.9004
1651.485168 58.147 -57.7803
1663.452510 57.338 -125.2314
1675.506573 57.639 121.2598
1687.647984 58.836 94.4590
1699.877377 60.360 92.4839
1712.195390 61.496 80.3105
1724.602663 61.439 55.2661
1737.099845 60.992 123.7656
1749.687587 60.614 118.6743
1762.366544 59.765 98.9512
1775.137379 58.121 110.1826
1788.000756 56.483 108.6084
1800.957346 55.797 64.8970
1814.007826 57.000 -19.8794
1827.152874 59.368 -54.3135
1840.393177 60.700 -77.2480
1853.729425 60.349 -102.7480
