* Measurement data measured by REW V5.31
* Source: Scarlett 2i4 USB, MICROPHONE, R, volume: no control. Timing signal peak level -30.9 dBFS, measurement signal peak level -22.6 dBFS
* Format: 512k Log Swept Sine, 1 sweep at -18.0 dBFS using an acoustic timing reference
* Dated: Apr 16, 2024 9:49:40 AM
* REW Settings:
*  C-weighting compensation: Off
*  Target level: 75.0 dB
* Note: ; Delay -0.9038 ms (-310 mm, -(1 ft 0.21 in)) using estimated IR delay relative to Acoustic reference played from SPEAKER L with no timing offset
* Measurement: ottoman-p1-c
* Smoothing: 1/48 octave
* Frequency Step: 96 ppo
* Start Frequency: 10.093689 Hz
*
* Freq(Hz) SPL(dB) Phase(degrees)
10.093689 26.120 31.6117
10.166832 26.362 29.7238
10.240505 26.654 27.7572
10.314712 26.955 25.7993
10.389457 27.255 23.9262
10.464743 27.539 22.1791
10.540575 27.799 20.4481
10.616956 28.044 18.7626
10.693891 28.283 17.1881
10.771383 28.521 15.7913
10.849437 28.753 14.5688
10.928057 28.981 13.4678
11.007246 29.216 12.4728
11.087009 29.467 11.5767
11.167350 29.740 10.8222
11.248273 30.031 10.2302
11.329783 30.341 9.6811
11.411883 30.676 9.0652
11.494578 31.041 8.3671
11.577873 31.436 7.7236
11.661771 31.851 7.0019
11.746277 32.279 6.0665
11.831395 32.716 4.8720
11.917130 33.167 3.5743
12.003487 33.622 2.1254
12.090469 34.066 0.4556
12.178081 34.495 -1.4755
12.266329 34.913 -3.5874
12.355216 35.312 -5.8290
12.444747 35.683 -8.1839
12.534926 36.024 -10.7256
12.625760 36.336 -13.4366
12.717251 36.616 -16.1893
12.809406 36.857 -18.9070
12.902228 37.061 -21.7621
12.995723 37.226 -24.6899
13.089895 37.353 -27.5214
13.184750 37.438 -30.2065
13.280292 37.481 -32.9411
13.376526 37.486 -35.5842
13.473458 37.456 -37.9504
13.571093 37.385 -40.1166
13.669434 37.281 -42.1237
13.768489 37.157 -43.8465
13.868261 37.017 -45.1657
13.968756 36.859 -46.1290
14.069979 36.707 -46.7700
14.171936 36.585 -47.0858
14.274632 36.490 -46.9463
14.378072 36.432 -46.5109
14.482261 36.434 -46.0232
14.587206 36.503 -45.4007
14.692910 36.630 -44.7148
14.799381 36.799 -44.2451
14.906624 37.008 -44.0655
15.014643 37.250 -44.0816
15.123446 37.495 -44.3496
15.233036 37.725 -44.9372
15.343421 37.944 -45.7838
15.454606 38.134 -46.7173
15.566596 38.282 -47.7129
15.679398 38.394 -48.8274
15.793018 38.471 -49.8100
15.907460 38.511 -50.5548
16.022732 38.522 -51.1563
16.138840 38.526 -51.4496
16.255788 38.533 -51.3171
16.373585 38.554 -50.8370
16.492234 38.622 -50.1111
16.611744 38.755 -49.0743
16.732119 38.951 -47.8712
16.853367 39.218 -46.8552
16.975494 39.560 -45.9538
17.098505 39.953 -45.3193
17.222408 40.367 -45.1800
17.347209 40.802 -45.4205
17.472914 41.227 -46.0086
17.599530 41.621 -46.9789
17.727063 41.983 -48.2478
17.855521 42.300 -49.6085
17.984909 42.566 -51.1349
18.115235 42.783 -52.6834
18.246506 42.955 -54.0540
18.378727 43.082 -55.3551
18.511907 43.179 -56.3923
18.646052 43.253 -57.1102
18.781169 43.315 -57.5419
18.917265 43.388 -57.6110
19.054347 43.476 -57.3249
19.192423 43.599 -56.7837
19.331499 43.767 -55.9841
19.471583 43.983 -55.0229
19.612682 44.253 -54.0322
19.754804 44.576 -53.0087
19.897956 44.946 -52.1115
20.042144 45.363 -51.3191
20.187378 45.818 -50.7508
20.333664 46.307 -50.4116
20.481010 46.824 -50.3429
20.629424 47.359 -50.6392
20.778913 47.906 -51.2289
20.929486 48.449 -52.2380
21.081150 48.982 -53.5835
21.233912 49.487 -55.2659
21.387782 49.956 -57.2947
21.542767 50.376 -59.5087
21.698874 50.739 -61.9456
21.856113 51.040 -64.4260
22.014492 51.275 -66.8581
22.174018 51.448 -69.1848
22.334700 51.565 -71.1561
22.496546 51.640 -72.8206
22.659566 51.699 -73.9263
22.823766 51.761 -74.5446
22.989157 51.870 -74.6698
23.155745 52.041 -74.3684
23.323542 52.300 -73.9807
23.492554 52.642 -73.5464
23.662790 53.048 -73.4711
23.834261 53.498 -73.6940
24.006973 53.950 -74.3382
24.180938 54.391 -75.2782
24.356163 54.799 -76.3375
24.532658 55.178 -77.4260
24.710431 55.543 -78.2640
24.889493 55.920 -78.8874
25.069853 56.349 -79.1454
25.251519 56.858 -79.3474
25.434502 57.474 -79.5405
25.618811 58.184 -80.2867
25.804456 58.974 -81.5936
25.991445 59.789 -83.8918
26.179790 60.598 -86.9980
26.369500 61.350 -91.0207
26.560584 62.023 -95.7082
26.753053 62.591 -101.0086
26.946917 63.041 -106.6131
27.142185 63.364 -112.5559
27.338869 63.555 -118.3759
27.536977 63.615 -124.1956
27.736522 63.549 -129.5018
27.937512 63.372 -134.3230
28.139959 63.106 -138.2842
28.343872 62.798 -141.2796
28.549264 62.496 -143.1255
28.756143 62.284 -143.9582
28.964522 62.212 -144.0812
29.174411 62.321 -143.9157
29.385821 62.581 -144.2367
29.598763 62.949 -145.2267
29.813248 63.344 -147.2180
30.029287 63.707 -149.9907
30.246891 63.997 -153.4658
30.466073 64.181 -157.2991
30.686842 64.252 -161.2149
30.909212 64.208 -165.0515
31.133193 64.062 -168.3730
31.358797 63.843 -171.0317
31.586035 63.587 -172.7812
31.814921 63.364 -173.4846
32.045465 63.241 -173.3191
32.277680 63.275 -172.5097
32.511577 63.495 -171.7428
32.747169 63.866 -171.5811
32.984469 64.335 -172.3074
33.223488 64.824 -174.1189
33.464239 65.269 -176.8311
33.706735 65.632 179.8143
33.950987 65.891 176.0365
34.197010 66.044 172.2348
34.444816 66.108 168.6611
34.694417 66.112 165.4745
34.945827 66.098 162.8340
35.199059 66.117 160.6558
35.454126 66.200 158.6722
35.711041 66.354 156.6013
35.969818 66.562 154.1188
36.230470 66.776 150.9985
36.493011 66.948 147.2950
36.757455 67.042 143.1503
37.023814 67.032 138.7596
37.292104 66.911 134.4201
37.562338 66.692 130.4336
37.834530 66.401 126.9678
38.108695 66.074 124.1205
38.384846 65.750 121.8904
38.662999 65.459 120.1292
38.943167 65.212 118.5851
39.225365 65.000 117.0756
39.509608 64.803 115.5147
39.795911 64.600 113.9061
40.084289 64.376 112.3273
40.374756 64.126 110.8936
40.667328 63.852 109.7254
40.962020 63.561 108.9419
41.258848 63.270 108.6738
41.557827 63.007 109.0447
41.858972 62.818 110.0942
42.162299 62.756 111.6631
42.467824 62.863 113.3268
42.775564 63.134 114.4969
43.085533 63.517 114.6801
43.397749 63.932 113.6870
43.712227 64.307 111.6450
44.028983 64.598 108.8630
44.348036 64.789 105.6822
44.669400 64.886 102.3839
44.993093 64.906 99.1460
45.319131 64.868 96.0384
45.647532 64.787 93.0543
45.978313 64.666 90.1669
46.311491 64.502 87.3830
46.647083 64.293 84.7650
46.985107 64.043 82.4130
47.325581 63.765 80.4162
47.668521 63.479 78.8036
48.013947 63.204 77.5232
48.361876 62.951 76.4660
48.712326 62.721 75.5218
49.065315 62.507 74.6256
49.420863 62.304 73.7621
49.778987 62.110 72.9334
50.139706 61.923 72.1233
50.503039 61.742 71.2903
50.869005 61.559 70.3948
51.237623 61.362 69.4392
51.608912 61.140 68.4889
51.982891 60.888 67.6563
52.359580 60.613 67.0553
52.739000 60.326 66.7552
53.121168 60.041 66.7631
53.506106 59.768 67.0486
53.893833 59.512 67.5908
54.284370 59.279 68.4007
54.677737 59.079 69.4965
55.073955 58.926 70.8374
55.473043 58.829 72.2802
55.875024 58.781 73.6317
56.279917 58.753 74.7874
56.687745 58.713 75.8579
57.098527 58.647 77.2110
57.512287 58.590 79.3423
57.929045 58.626 82.5722
58.348822 58.863 86.7094
58.771642 59.367 90.9668
59.197525 60.122 94.4084
59.626495 61.058 96.4723
60.058573 62.100 96.9656
60.493782 63.183 95.7672
60.932145 64.238 92.7807
61.373685 65.193 88.0784
61.818424 65.981 81.9357
62.266386 66.560 74.8401
62.717593 66.919 67.3135
63.172071 67.078 59.8753
63.629842 67.083 52.9302
64.090930 66.993 46.6260
64.555359 66.866 40.8977
65.023154 66.739 35.5009
65.494339 66.625 30.1563
65.968938 66.515 24.6385
66.446976 66.395 18.8366
66.928478 66.249 12.7230
67.413469 66.070 6.2911
67.901975 65.857 -0.5057
68.394021 65.609 -7.7488
68.889632 65.321 -15.5195
69.388835 65.000 -23.8390
69.891655 64.675 -32.8036
70.398118 64.399 -42.7947
70.908252 64.213 -54.5486
71.422083 64.103 -68.9037
71.939636 64.004 -86.3091
72.460941 63.851 -106.4418
72.986023 63.622 -128.4383
73.514909 63.348 -150.6849
74.047629 63.106 -171.5649
74.584208 62.994 170.2151
75.124676 63.095 155.0804
75.669061 63.447 142.6928
76.217390 64.043 132.2289
76.769692 64.832 122.6664
77.325997 65.716 113.0196
77.886333 66.563 102.6641
78.450730 67.259 91.6622
79.019216 67.746 80.4960
79.591822 68.034 69.8301
80.168577 68.184 60.0619
80.749512 68.267 51.2735
81.334656 68.347 43.2743
81.924040 68.461 35.7101
82.517696 68.612 28.1774
83.115653 68.772 20.3426
83.717943 68.891 12.1280
84.324598 68.936 3.7708
84.935649 68.905 -4.4100
85.551128 68.823 -12.2294
86.171066 68.716 -19.6428
86.795497 68.612 -26.6130
87.424453 68.547 -33.1324
88.057967 68.561 -39.4877
88.696071 68.644 -46.3031
89.338800 68.714 -54.0688
89.986185 68.659 -62.6254
90.638262 68.409 -71.1304
91.295065 67.991 -78.4461
91.956626 67.544 -83.7410
92.622982 67.271 -87.0820
93.294166 67.329 -89.5710
93.970214 67.732 -92.8675
94.651161 68.323 -98.3486
95.337042 68.873 -106.3021
96.027894 69.214 -115.9105
96.723752 69.285 -125.9832
97.424652 69.109 -135.6349
98.130631 68.730 -144.4158
98.841726 68.187 -151.9509
99.557974 67.549 -157.7236
100.279412 66.936 -161.4562
101.006078 66.484 -163.5728
101.738010 66.272 -165.0648
102.475245 66.276 -167.0371
103.217823 66.374 -170.2339
103.965782 66.419 -174.4951
104.719161 66.333 -178.7986
105.477999 66.162 178.0337
106.242336 66.053 176.5836
107.012212 66.176 176.3508
107.787666 66.588 175.7499
108.568740 67.165 173.1387
109.355474 67.702 168.2988
110.147909 68.078 162.3252
110.946086 68.304 156.2739
111.750047 68.433 150.2350
112.559834 68.465 143.7612
113.375489 68.349 136.8037
114.197055 68.044 129.6094
115.024574 67.504 122.3171
115.858089 66.663 115.4858
116.697645 65.501 110.6299
117.543284 64.139 109.6475
118.395051 62.864 113.1362
119.252990 61.977 119.0272
120.117147 61.516 124.1228
120.987565 61.252 127.4666
121.864291 61.030 131.3306
122.747370 61.064 138.7799
123.636848 61.752 148.9080
124.532771 63.082 156.1465
125.435187 64.634 157.6321
126.344142 66.044 154.1050
127.259684 67.116 147.0039
128.181860 67.771 137.8242
129.110718 68.001 127.6670
130.046308 67.781 116.7720
130.988677 67.007 105.5469
131.937875 65.558 95.6759
132.893951 63.462 90.3760
133.856956 61.541 100.6829
134.826938 62.341 163.6887
135.803950 65.443 -174.5474
136.788041 68.295 177.4449
137.779264 70.188 161.9604
138.777669 71.125 144.9902
139.783309 71.292 129.6895
140.796237 70.931 117.3846
141.816504 70.237 107.9927
142.844165 69.330 101.1560
143.879273 68.284 96.8955
144.921881 67.190 95.5986
145.972045 66.224 97.8367
147.029819 65.673 103.4331
148.095257 65.788 110.1138
149.168417 66.507 114.4175
150.249353 67.476 114.1637
151.338121 68.342 109.6528
152.434780 68.932 102.6042
153.539385 69.220 94.4302
154.651995 69.234 85.5122
155.772667 68.967 75.7118
156.901460 68.392 65.2786
158.038432 67.529 54.5947
159.183644 66.461 43.0840
160.337154 65.317 28.5454
161.499023 64.303 7.0399
162.669312 63.825 -26.8102
163.848081 64.307 -71.8179
165.035392 65.553 -111.2587
166.231306 66.961 -138.8723
167.435887 68.214 -158.1451
168.649196 69.301 -172.0125
169.871298 70.222 176.6606
171.102255 70.875 165.8997
172.342133 71.186 156.2089
173.590995 71.241 149.1653
174.848907 71.233 144.9453
176.115934 71.338 142.9611
177.392143 71.743 143.2637
178.677599 72.545 143.7584
179.972371 73.546 141.2002
181.276525 74.458 135.4418
182.590129 75.144 128.1262
183.913252 75.607 120.3824
185.245964 75.870 112.3546
186.588332 75.915 103.8467
187.940428 75.672 94.8866
189.302322 75.050 86.1140
190.674085 74.001 79.3701
192.055788 72.676 78.4011
193.447503 71.631 86.0386
194.849303 71.457 95.2885
196.261262 72.005 99.7145
197.683452 72.877 101.4875
199.115948 73.915 101.4895
200.558824 74.982 98.5825
202.012156 75.866 92.0533
203.476019 76.370 82.7633
204.950490 76.395 72.6189
206.435646 75.959 63.6785
207.931564 75.206 57.7845
209.438322 74.414 55.8608
210.955998 73.887 56.3677
212.484672 73.648 55.2217
214.024424 73.369 51.0031
215.575333 72.793 46.9550
217.137481 72.066 47.5010
218.710948 71.748 54.0336
220.295818 72.267 61.2734
221.892172 73.293 62.1360
223.500094 74.205 56.3931
225.119668 74.697 47.7266
226.750978 74.768 38.9462
228.394109 74.517 30.9469
230.049147 74.040 24.0056
231.716178 73.419 18.1525
233.395289 72.689 12.7097
235.086567 71.808 7.4215
236.790102 70.732 3.4357
238.505980 69.542 2.1606
240.234293 68.467 3.7261
241.975130 67.945 9.9951
243.728581 68.323 16.3767
245.494739 68.941 10.3422
247.273695 68.849 -4.3387
249.065542 67.698 -19.5228
250.870374 65.521 -30.5870
252.688284 62.464 -33.4116
254.519367 59.014 -15.1145
256.363720 57.065 38.2571
258.221437 58.551 56.8717
260.092616 62.125 95.3414
261.977354 66.063 128.2178
263.875750 69.344 116.5043
265.787903 71.683 97.3590
267.713911 73.015 75.6422
269.653877 73.298 53.6973
271.607900 72.602 35.5569
273.576083 71.267 25.6266
275.558528 70.038 25.8217
277.555338 69.855 32.3546
279.566619 70.699 31.9205
281.592474 71.725 23.2927
283.633009 72.480 10.2017
285.688331 72.658 -8.2761
287.758546 71.907 -30.2825
289.843763 70.090 -50.9783
291.944090 67.369 -68.9851
294.059638 64.368 -85.1230
296.190515 63.104 65.2352
298.336833 64.429 49.3232
300.498705 66.226 33.5161
302.676243 67.577 18.5883
304.869559 68.155 0.9739
307.078770 67.926 -14.1240
309.303989 67.455 -22.4995
311.545334 67.260 -30.3998
313.802919 67.268 -41.1312
316.076865 67.225 -54.6648
318.367288 66.842 -72.2937
320.674309 65.801 -93.1256
322.998047 64.103 -110.5270
325.338624 62.986 -77.3207
327.696162 64.036 -47.5787
330.070783 65.657 -67.2466
332.462612 66.416 -92.2833
334.871773 66.291 -113.1279
337.298392 65.880 -127.0055
339.742595 65.610 -139.0171
342.204510 65.349 -151.5735
344.684265 64.997 -161.5376
347.181989 64.985 -164.5242
349.697813 65.793 -164.6978
352.231868 66.889 -173.7756
354.784285 67.544 171.3438
357.355198 67.598 156.4985
359.944741 67.165 143.4670
362.553049 66.496 135.3567
365.180258 66.241 135.2863
367.826505 66.620 129.9319
370.491927 66.912 116.1333
373.176665 66.657 99.7074
375.880856 65.879 83.1594
378.604644 64.712 64.0277
381.348169 63.024 38.3798
384.111575 60.776 4.5137
386.895006 59.156 -51.0170
389.698607 59.722 -105.5479
392.522524 61.664 -133.6826
395.366904 64.044 -147.9832
398.231895 66.425 -160.0330
401.117648 68.391 -175.5566
404.024312 69.585 164.3486
406.952038 69.734 142.2351
409.900981 68.883 124.3760
412.871292 67.438 114.0239
415.863128 66.011 111.2937
418.876643 65.440 114.1660
421.911996 66.164 115.3916
424.969344 67.357 105.6604
428.048847 67.720 82.1643
431.150666 66.726 56.8555
434.274961 65.236 36.8535
437.421897 64.707 2.8123
440.591636 64.981 -49.9700
443.784345 65.754 -92.9099
447.000189 67.520 -114.5532
450.239337 69.563 -134.3149
453.501956 71.053 -155.9319
456.788219 72.111 -173.2522
460.098294 73.130 172.9814
463.432356 74.037 157.6692
466.790578 74.448 139.3936
470.173135 74.209 122.5620
473.580203 73.735 111.5193
477.011961 73.517 101.7681
480.468586 73.475 88.7595
483.950259 73.281 72.4705
487.457163 72.719 53.2749
490.989478 71.698 30.3135
494.547390 70.149 0.8210
498.131084 68.261 -45.1223
501.740748 67.365 166.0459
505.376568 68.223 118.8955
509.038735 69.068 86.2283
512.727439 69.016 59.1948
516.442874 68.508 43.1421
520.185232 68.746 38.7500
523.954708 69.952 26.8594
527.751500 71.162 6.0601
531.575805 71.928 -17.6924
535.427822 72.191 -42.3708
539.307753 71.784 -67.1741
543.215800 70.756 -84.2026
547.152165 70.172 -88.4124
551.117055 70.731 -97.1030
555.110677 71.391 -116.3877
559.133237 71.256 -141.3711
563.184947 69.989 -166.8450
567.266018 67.983 -163.9504
571.376661 67.394 -95.5493
575.517092 68.743 -103.0491
579.687526 69.918 -120.3457
583.888181 70.447 -133.7363
588.119275 70.894 -140.2529
592.381030 71.252 -151.3640
596.673667 70.917 -165.9548
600.997410 69.906 -173.5283
605.352485 69.208 -168.4856
609.739119 69.687 -162.8704
614.157540 70.505 -170.4648
618.607979 70.578 174.4526
623.090667 69.545 160.7190
627.605839 67.846 160.7273
632.153730 67.297 -178.0913
636.734576 69.111 -157.9736
641.348617 71.441 -160.9138
645.996094 73.035 -177.0076
650.677248 73.867 164.6487
655.392323 74.046 145.3054
660.141566 73.544 125.0747
664.925224 72.328 106.4658
669.743546 70.723 94.4597
674.596784 69.481 84.7336
679.485191 68.693 67.4541
684.409020 68.219 49.2412
689.368530 68.123 22.9890
694.363979 67.692 -11.2090
699.395626 66.485 -43.1785
704.463736 64.819 -61.6499
709.568570 64.480 -61.2463
714.710396 66.772 -45.8435
719.889483 69.545 -50.2888
725.106099 71.120 -72.5337
730.360516 71.526 -93.4541
735.653010 71.445 -107.6777
740.983855 71.441 -116.8118
746.353329 71.676 -124.8665
751.761713 71.982 -135.2581
757.209288 71.826 -150.6714
762.696339 70.870 -166.2837
768.223151 69.138 -177.4797
773.790013 67.209 -172.8037
779.397214 66.192 -158.9260
785.045047 65.929 -155.5403
790.733808 66.151 -147.3096
796.463791 66.219 -160.7217
802.235296 65.742 175.1001
808.048623 66.187 99.4666
813.904077 68.333 -41.1387
819.801961 70.543 -69.7583
825.742584 71.806 -94.5073
831.726255 72.040 -114.6228
837.753287 71.657 -128.3474
843.823992 71.055 -137.9856
849.938689 70.609 -143.7590
856.097695 70.280 -155.3088
862.301332 69.403 -168.7139
868.549922 68.755 -116.7178
874.843793 69.697 -100.3738
881.183272 70.891 -115.6143
887.568689 71.406 -129.2871
894.000378 71.762 -135.9072
900.478673 71.975 -147.6614
907.003913 71.389 -163.2747
913.576437 69.944 -168.5354
920.196588 68.929 -159.7249
926.864712 68.634 -167.0615
933.581156 67.664 178.9946
940.346270 66.342 -171.5669
947.160407 65.852 -163.4365
954.023921 65.405 178.0449
960.937172 64.938 152.9612
967.900519 64.939 -48.7173
974.914325 65.021 -80.5701
981.978956 64.637 -98.5532
989.094780 63.814 -102.6450
996.262169 63.160 -98.8467
1003.481495 64.037 -78.1272
1010.753136 66.336 -67.7305
1018.077470 68.575 -71.7822
1025.454879 70.160 -82.6389
1032.885748 71.157 -94.7407
1040.370463 71.958 -103.4585
1047.909417 72.622 -114.9160
1055.503000 72.320 -134.5657
1063.151610 70.909 -148.2241
1070.855645 69.371 -153.3535
1078.615506 68.325 -169.4851
1086.431599 67.526 167.1162
1094.304330 67.304 -55.6775
1102.234110 67.733 -76.7051
1110.221353 68.403 -89.0820
1118.266475 68.728 -103.1753
1126.369895 68.581 -114.6340
1134.532035 68.841 -115.3833
1142.753322 70.041 -109.9607
1151.034184 70.821 -127.5256
1159.375052 70.171 -150.0796
1167.776361 68.705 -164.1262
1176.238550 67.341 172.2830
1184.762060 65.404 131.8733
1193.347334 62.623 36.3516
1201.994821 60.421 -43.3359
1210.704971 60.180 -70.2617
1219.478238 61.651 -80.4053
1228.315080 64.271 -1.8438
1237.215957 66.402 -18.6973
1246.181334 67.298 -46.1606
1255.211678 67.012 -68.9023
1264.307459 65.861 -79.0811
1273.469152 64.531 -86.2490
1282.697235 63.168 -90.9062
1291.992188 62.756 -78.8164
1301.354495 63.996 -70.0205
1310.784647 65.139 -82.1172
1320.283132 64.845 -99.1914
1329.850448 63.400 -108.6807
1339.487093 62.221 -119.0400
1349.193569 62.930 -130.9180
1358.970381 64.502 -179.6157
1368.818041 65.358 75.4644
1378.737061 65.993 13.7871
1388.727958 66.203 -30.8604
1398.791253 65.371 -71.8633
1408.927471 63.474 -111.9570
1419.137140 61.766 -171.2129
1429.420793 61.987 106.5830
1439.778965 63.197 57.5063
1450.212197 63.307 21.3843
1460.721033 62.075 4.2397
1471.306019 61.414 22.6108
1481.967709 62.521 29.1665
1492.706658 63.704 12.1670
1503.523426 63.897 -9.7573
1514.418576 63.121 -29.4849
1525.392678 62.279 -44.1938
1536.446302 61.835 -68.0659
1547.580025 61.704 84.8765
1558.794428 63.047 58.9414
1570.090095 64.815 29.7485
1581.467615 66.164 -0.7358
1592.927581 67.211 -36.0747
1604.470591 67.475 -83.6201
1616.097246 66.736 -140.0576
1627.808153 65.201 169.8066
1639.603922 64.249 142.0439
1651.485168 65.160 122.4702
1663.452510 65.847 94.1455
1675.506573 64.846 67.2441
1687.647984 62.956 53.4121
1699.877377 62.401 55.8477
1712.195390 64.145 84.0684
1724.602663 65.504 64.3403
1737.099845 64.854 23.1177
1749.687587 63.080 -24.1084
1762.366544 62.708 136.4897
1775.137379 63.590 91.5000
1788.000756 63.912 166.2495
1800.957346 64.001 161.9688
1814.007826 64.712 126.3467
1827.152874 66.436 -121.4785
1840.393177 67.730 -156.0562
1853.729425 67.518 167.8730
1867.162312 66.528 144.9092
1880.692540 66.057 142.3726
1894.320813 66.211 155.4785
1908.047843 66.554 152.2651
