* Measurement data measured by REW V5.31
* Source: Scarlett 2i4 USB, MICROPHONE, R, volume: no control. Timing signal peak level -30.3 dBFS, measurement signal peak level -24.7 dBFS
* Format: 512k Log Swept Sine, 1 sweep at -18.0 dBFS using an acoustic timing reference
* Dated: Apr 16, 2024 10:05:57 AM
* REW Settings:
*  C-weighting compensation: Off
*  Target level: 75.0 dB
* Note: ; Delay 0.0451 ms (15 mm, 0.61 in) using estimated IR delay relative to Acoustic reference played from SPEAKER L with no timing offset
* Measurement: screen-p1-r
* Smoothing: 1/48 octave
* Frequency Step: 96 ppo
* Start Frequency: 10.093689 Hz
*
* Freq(Hz) SPL(dB) Phase(degrees)
10.093689 21.714 43.9738
10.166832 21.774 39.3137
10.240505 21.846 34.5375
10.314712 21.919 29.8269
10.389457 21.982 25.3916
10.464743 21.998 21.3778
10.540575 21.938 17.3766
10.616956 21.825 13.3860
10.693891 21.662 9.5748
10.771383 21.449 6.1793
10.849437 21.182 3.1228
10.928057 20.862 0.2303
11.007246 20.494 -2.3971
11.087009 20.082 -4.5690
11.167350 19.615 -6.0874
11.248273 19.086 -6.9727
11.329783 18.540 -7.1861
11.411883 18.033 -6.6550
11.494578 17.584 -5.1998
11.577873 17.168 -2.4786
11.661771 16.841 1.2698
11.746277 16.690 5.5341
11.831395 16.789 9.8500
11.917130 17.125 14.3559
12.003487 17.621 18.3940
12.090469 18.200 21.4223
12.178081 18.837 23.3304
12.266329 19.557 24.4843
12.355216 20.305 24.9020
12.444747 21.020 24.6192
12.534926 21.683 23.7174
12.625760 22.313 22.3731
12.717251 22.906 20.7187
12.809406 23.459 18.8309
12.902228 23.968 16.6657
12.995723 24.437 14.3145
13.089895 24.872 11.8896
13.184750 25.275 9.4142
13.280292 25.644 6.8039
13.376526 25.984 4.1569
13.473458 26.297 1.5606
13.571093 26.585 -1.0672
13.669434 26.846 -3.7214
13.768489 27.085 -6.3106
13.868261 27.302 -8.8191
13.968756 27.497 -11.3337
14.069979 27.672 -13.7735
14.171936 27.827 -16.0682
14.274632 27.963 -18.3069
14.378072 28.082 -20.4486
14.482261 28.186 -22.4046
14.587206 28.274 -24.2095
14.692910 28.351 -25.8728
14.799381 28.423 -27.3239
14.906624 28.491 -28.5348
15.014643 28.559 -29.5408
15.123446 28.640 -30.3381
15.233036 28.740 -30.8902
15.343421 28.861 -31.2116
15.454606 29.014 -31.4142
15.566596 29.209 -31.5148
15.679398 29.443 -31.4873
15.793018 29.717 -31.5362
15.907460 30.031 -31.7226
16.022732 30.381 -31.9801
16.138840 30.750 -32.4836
16.255788 31.132 -33.2779
16.373585 31.521 -34.2771
16.492234 31.897 -35.5208
16.611744 32.254 -37.0492
16.732119 32.585 -38.7670
16.853367 32.876 -40.5715
16.975494 33.126 -42.5641
17.098505 33.329 -44.5922
17.222408 33.480 -46.4864
17.347209 33.579 -48.3935
17.472914 33.630 -50.0780
17.599530 33.635 -51.4016
17.727063 33.600 -52.4529
17.855521 33.552 -53.0093
17.984909 33.494 -52.9944
18.115235 33.458 -52.4817
18.246506 33.486 -51.4774
18.378727 33.583 -49.9550
18.511907 33.774 -48.3440
18.646052 34.077 -46.7155
18.781169 34.468 -45.2623
18.917265 34.918 -44.3794
19.054347 35.418 -43.9325
19.192423 35.919 -44.0063
19.331499 36.401 -44.6299
19.471583 36.849 -45.5910
19.612682 37.243 -46.7797
19.754804 37.583 -48.1912
19.897956 37.871 -49.4927
20.042144 38.107 -50.7494
20.187378 38.314 -51.7867
20.333664 38.503 -52.4786
20.481010 38.695 -52.9202
20.629424 38.922 -53.0798
20.778913 39.190 -53.0161
20.929486 39.514 -53.0379
21.081150 39.895 -53.0888
21.233912 40.310 -53.4996
21.387782 40.749 -54.2762
21.542767 41.179 -55.4107
21.698874 41.579 -56.9834
21.856113 41.932 -58.7683
22.014492 42.220 -60.7110
22.174018 42.444 -62.6732
22.334700 42.602 -64.3685
22.496546 42.710 -65.8193
22.659566 42.796 -66.6817
22.823766 42.883 -67.0427
22.989157 43.029 -66.8542
23.155745 43.251 -66.2205
23.323542 43.584 -65.5800
23.492554 44.020 -64.9969
23.662790 44.527 -65.0153
23.834261 45.079 -65.5278
24.006973 45.615 -66.7065
24.180938 46.117 -68.3550
24.356163 46.549 -70.2639
24.532658 46.913 -72.2889
24.710431 47.213 -74.0445
24.889493 47.478 -75.4893
25.069853 47.750 -76.2972
25.251519 48.081 -76.6929
25.434502 48.523 -76.6177
25.618811 49.095 -76.7626
25.804456 49.803 -77.2138
25.991445 50.588 -78.7038
26.179790 51.412 -81.0799
26.369500 52.199 -84.6172
26.560584 52.916 -88.9875
26.753053 53.521 -94.1721
26.946917 53.997 -99.7681
27.142185 54.327 -105.8173
27.338869 54.504 -111.7486
27.536977 54.527 -117.6970
27.736522 54.401 -123.0151
27.937512 54.145 -127.7152
28.139959 53.788 -131.2767
28.343872 53.406 -133.5829
28.549264 53.069 -134.3742
28.756143 52.904 -134.0457
28.964522 52.960 -133.1655
29.174411 53.258 -132.5171
29.385821 53.704 -132.9986
29.598763 54.215 -134.6508
29.813248 54.683 -137.5835
30.029287 55.053 -141.2904
30.246891 55.292 -145.6288
30.466073 55.387 -150.0451
30.686842 55.348 -154.2795
30.909212 55.192 -158.1067
31.133193 54.960 -161.1470
31.358797 54.697 -163.3985
31.586035 54.451 -164.7521
31.814921 54.275 -165.4550
32.045465 54.187 -165.7669
32.277680 54.191 -165.9320
32.511577 54.263 -166.2361
32.747169 54.378 -166.6845
32.984469 54.521 -167.2667
33.223488 54.687 -167.8961
33.464239 54.887 -168.5468
33.706735 55.129 -169.2736
33.950987 55.417 -170.1515
34.197010 55.742 -171.3382
34.444816 56.086 -172.8841
34.694417 56.430 -174.7804
34.945827 56.760 -176.9805
35.199059 57.071 -179.3703
35.454126 57.372 178.1049
35.711041 57.669 175.4510
35.969818 57.972 172.6317
36.230470 58.279 169.5233
36.493011 58.574 166.0408
36.757455 58.836 162.1680
37.023814 59.042 157.9314
37.292104 59.170 153.4510
37.562338 59.212 148.9652
37.834530 59.174 144.6794
38.108695 59.078 140.7637
38.384846 58.957 137.3410
38.662999 58.855 134.4133
38.943167 58.807 131.7751
39.225365 58.824 129.1457
39.509608 58.892 126.3022
39.795911 58.987 123.1343
40.084289 59.084 119.6620
40.374756 59.178 116.0063
40.667328 59.284 112.2851
40.962020 59.437 108.4490
41.258848 59.663 104.2416
41.557827 59.963 99.2883
41.858972 60.306 93.2399
42.162299 60.638 85.8863
42.467824 60.898 77.1915
42.775564 61.036 67.2626
43.085533 61.018 56.2959
43.397749 60.826 44.5301
43.712227 60.457 32.2170
44.028983 59.926 19.5768
44.348036 59.260 6.7853
44.669400 58.500 -6.0278
44.993093 57.700 -18.7808
45.319131 56.916 -31.4315
45.647532 56.200 -43.9360
45.978313 55.584 -56.1865
46.311491 55.083 -67.9606
46.647083 54.699 -78.9291
46.985107 54.443 -88.7476
47.325581 54.338 -97.2099
47.668521 54.405 -104.3799
48.013947 54.638 -110.5779
48.361876 54.990 -116.1648
48.712326 55.393 -121.2769
49.065315 55.810 -125.7380
49.420863 56.255 -129.2238
49.778987 56.798 -131.5819
50.139706 57.516 -133.1119
50.503039 58.434 -134.4994
50.869005 59.514 -136.3981
51.237623 60.697 -139.1025
51.608912 61.948 -142.6479
51.982891 63.255 -147.1233
52.359580 64.596 -152.8141
52.739000 65.914 -160.0578
53.121168 67.129 -169.0045
53.506106 68.160 -179.5185
53.893833 68.946 168.7322
54.284370 69.444 156.1846
54.677737 69.631 143.3467
55.073955 69.507 130.7593
55.473043 69.088 118.9717
55.875024 68.415 108.4955
56.279917 67.555 99.7150
56.687745 66.595 92.8166
57.098527 65.624 87.6406
57.512287 64.695 83.7911
57.929045 63.825 80.9717
58.348822 63.017 79.1672
58.771642 62.307 78.4396
59.197525 61.752 78.5873
59.626495 61.388 79.0629
60.058573 61.204 79.3123
60.493782 61.155 79.0459
60.932145 61.205 78.1695
61.373685 61.326 76.5458
61.818424 61.475 73.9843
62.266386 61.594 70.4532
62.717593 61.630 66.1669
63.172071 61.560 61.5102
63.629842 61.394 56.8668
64.090930 61.166 52.4440
64.555359 60.918 48.2535
65.023154 60.684 44.1051
65.494339 60.477 39.6978
65.968938 60.279 34.7111
66.446976 60.049 28.9760
66.928478 59.743 22.5604
67.413469 59.334 15.7183
67.901975 58.832 8.6859
68.394021 58.278 1.4917
68.889632 57.717 -6.2007
69.388835 57.171 -14.9804
69.891655 56.632 -25.4088
70.398118 56.095 -37.9550
70.908252 55.583 -53.1865
71.422083 55.141 -71.7668
71.939636 54.790 -94.3201
72.460941 54.490 -120.6346
72.986023 54.137 -149.8633
73.514909 53.590 179.4491
74.047629 52.737 147.7144
74.584208 51.599 113.2378
75.124676 50.592 70.4395
75.669061 50.675 13.8889
76.217390 52.319 -34.6205
76.769692 54.706 -65.3093
77.325997 57.102 -86.7889
77.886333 59.277 -103.9895
78.450730 61.220 -119.0447
79.019216 62.940 -133.1523
79.591822 64.418 -147.1178
80.168577 65.610 -161.1987
80.749512 66.496 -175.2086
81.334656 67.096 171.2599
81.924040 67.454 158.3879
82.517696 67.590 146.0031
83.115653 67.471 133.9397
83.717943 67.030 122.5106
84.324598 66.227 112.7098
84.935649 65.109 105.9611
85.551128 63.853 103.7804
86.171066 62.808 106.9222
86.795497 62.399 113.8164
87.424453 62.794 120.5548
88.057967 63.752 124.4202
88.696071 64.974 125.3022
89.338800 66.297 123.7128
89.986185 67.627 119.7292
90.638262 68.875 113.3138
91.295065 69.956 104.5890
91.956626 70.794 93.7773
92.622982 71.311 81.2135
93.294166 71.431 67.4675
93.970214 71.104 53.3981
94.651161 70.314 40.0826
95.337042 69.093 28.6716
96.027894 67.524 20.1874
96.723752 65.735 15.3569
97.424652 63.899 14.5988
98.130631 62.246 17.8491
98.841726 61.042 23.8490
99.557974 60.434 30.2596
100.279412 60.353 35.2939
101.006078 60.621 38.2119
101.738010 61.044 38.5437
102.475245 61.423 36.0350
103.217823 61.575 31.2976
103.965782 61.406 25.8737
104.719161 60.952 21.4604
105.477999 60.367 19.0664
106.242336 59.863 18.7207
107.012212 59.638 19.4237
107.787666 59.742 18.8776
108.568740 59.971 14.9896
109.355474 60.034 8.0122
110.147909 59.781 -0.2312
110.946086 59.258 -8.2086
111.750047 58.611 -15.9390
112.559834 57.928 -24.8645
113.375489 57.168 -36.3744
114.197055 56.245 -51.1156
115.024574 55.151 -69.7444
115.858089 53.992 -93.1782
116.697645 52.988 -121.0154
117.543284 52.420 -148.9769
118.395051 52.429 -171.6656
119.252990 52.879 172.4730
120.117147 53.602 162.7578
120.987565 54.639 158.3221
121.864291 56.039 156.3824
122.747370 57.610 153.2019
123.636848 59.081 147.5653
124.532771 60.310 140.3862
125.435187 61.277 132.7015
126.344142 61.999 125.0483
127.259684 62.495 117.7190
128.181860 62.790 111.1187
129.110718 62.949 105.8347
130.046308 63.089 102.2214
130.988677 63.312 99.4636
131.937875 63.584 96.0852
132.893951 63.781 91.8195
133.856956 63.827 87.4817
134.826938 63.723 83.8669
135.803950 63.527 81.6080
136.788041 63.372 81.4286
137.779264 63.468 83.5621
138.777669 63.953 86.0685
139.783309 64.687 86.0402
140.796237 65.392 82.9982
141.816504 65.893 78.3198
142.844165 66.137 73.1207
143.879273 66.114 68.1697
144.921881 65.880 64.9270
145.972045 65.646 64.9219
147.029819 65.727 67.8580
148.095257 66.319 71.4546
149.168417 67.348 73.2024
150.249353 68.557 71.5303
151.338121 69.687 66.2870
152.434780 70.590 58.6968
153.539385 71.241 49.9629
154.651995 71.646 40.4830
155.772667 71.805 30.6460
156.901460 71.744 21.0571
158.038432 71.516 11.8981
159.183644 71.163 2.9854
160.337154 70.695 -6.0314
161.499023 70.072 -15.6663
162.669312 69.199 -26.1505
163.848081 67.936 -37.0356
165.035392 66.154 -46.5695
166.231306 63.817 -51.6675
167.435887 61.072 -49.0796
168.649196 58.406 -34.4681
169.871298 56.930 -8.4983
171.102255 57.325 10.1248
172.342133 58.745 18.9606
173.590995 60.383 21.8466
174.848907 61.817 18.2577
176.115934 62.816 9.9908
177.392143 63.327 -0.7312
178.677599 63.347 -13.2388
179.972371 62.838 -27.5452
181.276525 61.725 -43.9919
182.590129 59.959 -63.6395
183.913252 57.867 -93.0486
185.245964 56.975 -177.4556
186.588332 58.508 114.9158
187.940428 60.827 89.1262
189.302322 62.715 70.0220
190.674085 63.947 52.6633
192.055788 64.545 36.4075
193.447503 64.581 21.5015
194.849303 64.133 8.2080
196.261262 63.277 -3.2263
197.683452 62.107 -12.6895
199.115948 60.720 -21.1028
200.558824 59.182 -30.5781
202.012156 57.635 -45.1523
203.476019 56.751 -76.1116
204.950490 57.697 -150.9302
206.435646 59.923 152.0410
207.931564 61.970 122.4099
209.438322 63.474 102.6655
210.955998 64.906 92.7253
212.484672 66.601 86.8105
214.024424 68.109 75.0320
215.575333 68.985 59.3003
217.137481 69.135 43.4526
218.710948 68.636 30.3259
220.295818 67.723 22.2776
221.892172 66.731 18.8269
223.500094 65.910 18.0432
225.119668 65.505 21.2341
226.750978 65.742 25.9380
228.394109 66.235 23.5564
230.049147 66.337 16.2937
231.716178 65.909 11.1833
233.395289 65.270 11.3403
235.086567 64.865 15.4094
236.790102 65.081 22.0244
238.505980 66.128 29.5574
240.234293 67.748 32.9807
241.975130 69.326 28.4917
243.728581 70.339 17.1819
245.494739 70.529 3.2900
247.273695 69.935 -7.6926
249.065542 69.008 -10.4773
250.870374 68.633 -4.8630
252.688284 69.378 0.8843
254.519367 70.717 -1.0686
256.363720 71.784 -12.1587
258.221437 72.031 -28.8757
260.092616 71.253 -45.2839
261.977354 69.602 -53.8435
263.875750 67.717 -50.1223
265.787903 66.449 -43.4170
267.713911 65.988 -39.5476
269.653877 65.965 -37.9187
271.607900 65.944 -40.1548
273.576083 65.769 -42.1689
275.558528 66.042 -34.4341
277.555338 67.342 -24.7073
279.566619 68.867 -30.2791
281.592474 69.677 -46.0640
283.633009 69.301 -65.3665
285.688331 67.737 -75.3618
287.758546 66.031 -58.5017
289.843763 65.752 -45.1548
291.944090 66.413 -48.2798
294.059638 66.842 -56.9868
296.190515 66.590 -67.0413
298.336833 65.787 -71.7422
300.498705 65.289 -63.8274
302.676243 65.810 -55.2314
304.869559 66.453 -62.2349
307.078770 66.301 -73.9968
309.303989 65.910 -70.7803
311.545334 66.824 -48.9968
313.802919 68.648 -48.4282
316.076865 70.089 -60.7224
318.367288 70.888 -74.5686
320.674309 71.232 -87.0781
322.998047 71.305 -98.4937
325.338624 71.151 -109.8291
327.696162 70.772 -120.2222
330.070783 70.377 -127.1963
332.462612 70.285 -132.5833
334.871773 70.381 -141.9084
337.298392 70.271 -154.2529
339.742595 69.842 -165.8794
342.204510 69.230 -176.0618
344.684265 68.541 174.4182
347.181989 67.809 165.6108
349.697813 67.120 158.5601
352.231868 66.739 154.0515
354.784285 66.951 150.5942
357.355198 67.543 142.1343
359.944741 67.844 126.9954
362.553049 67.536 111.9370
365.180258 66.986 102.4771
367.826505 66.815 96.3320
370.491927 67.272 89.9976
373.176665 67.963 78.0347
375.880856 68.276 60.6653
378.604644 67.971 42.4539
381.348169 67.035 25.4673
384.111575 65.515 12.9419
386.895006 63.743 8.9834
389.698607 62.287 8.1543
392.522524 61.568 11.6633
395.366904 62.140 24.5200
398.231895 63.564 23.6846
401.117648 64.884 13.5952
404.024312 65.822 0.6470
406.952038 66.261 -15.0352
409.900981 66.119 -31.5569
412.871292 65.474 -46.2170
415.863128 64.665 -56.2336
418.876643 64.032 -66.4358
421.911996 63.229 -82.1863
424.969344 62.080 -92.6680
428.048847 61.473 -97.4963
431.150666 61.546 -116.5327
434.274961 61.187 -149.2446
437.421897 59.773 171.0708
440.591636 57.671 128.3909
443.784345 56.470 81.2146
447.000189 56.935 27.6545
450.239337 57.550 -32.4929
453.501956 57.622 -99.9128
456.788219 57.751 -162.8171
460.098294 58.645 153.0852
463.432356 60.188 123.2773
466.790578 61.999 101.2932
470.173135 63.717 81.6240
473.580203 64.765 58.3413
477.011961 64.783 35.1829
480.468586 64.215 21.9126
483.950259 64.171 19.0891
487.457163 64.767 9.2063
490.989478 65.085 -8.0466
494.547390 65.283 -17.8633
498.131084 66.367 -18.8018
501.740748 67.621 -39.1055
505.376568 67.836 -73.1414
509.038735 66.868 -112.2000
512.727439 65.200 -160.2183
516.442874 63.558 128.4624
520.185232 62.487 56.2478
523.954708 61.987 8.5889
527.751500 61.478 -31.4932
531.575805 60.309 -73.5947
535.427822 59.304 -144.6738
539.307753 60.407 94.0195
543.215800 62.092 48.6748
547.152165 62.415 9.7563
551.117055 61.166 -18.2700
555.110677 59.820 -7.2188
559.133237 61.156 28.1914
563.184947 63.998 23.0898
567.266018 66.073 -1.3901
571.376661 66.675 -33.7368
575.517092 65.759 -64.1880
579.687526 63.790 -86.4014
583.888181 61.693 -107.1040
588.119275 60.358 -137.5820
592.381030 60.410 172.8350
596.673667 61.451 109.7827
600.997410 62.291 59.4277
605.352485 62.619 27.6880
609.739119 62.942 6.1406
614.157540 63.078 -16.9429
618.607979 63.000 -38.5703
623.090667 63.015 -64.3281
627.605839 63.889 -88.8511
632.153730 66.123 1.4634
636.734576 68.160 -30.0200
641.348617 68.845 -77.8018
645.996094 68.220 -121.7314
650.677248 67.436 -156.1973
655.392323 67.696 170.3848
660.141566 68.320 131.9043
664.925224 68.391 93.0596
669.743546 67.624 57.9927
674.596784 66.087 29.0254
679.485191 63.957 7.9927
684.409020 61.722 -4.8228
689.368530 60.696 3.8262
694.363979 62.570 49.8838
699.395626 65.770 45.4624
704.463736 68.174 19.8066
709.568570 69.092 -19.0469
714.710396 68.616 -63.9517
719.889483 67.162 -121.6504
725.106099 65.537 46.1538
730.360516 64.191 0.2954
735.653010 63.145 -21.2344
740.983855 63.474 -22.9600
746.353329 64.295 -56.7378
751.761713 63.936 -128.1250
757.209288 62.498 98.6602
762.696339 61.393 56.1265
768.223151 62.298 43.1328
773.790013 64.261 21.8105
779.397214 66.461 27.9805
785.045047 68.494 68.5518
790.733808 69.492 37.0366
796.463791 69.403 6.7334
802.235296 68.533 -18.1763
808.048623 66.923 -32.6289
813.904077 65.833 -28.8320
819.801961 66.831 -25.7183
825.742584 68.540 -39.1509
831.726255 69.292 -67.7065
837.753287 69.015 -101.1167
843.823992 68.292 -140.2822
849.938689 67.386 169.0879
856.097695 66.099 112.7539
862.301332 64.476 71.3926
868.549922 63.574 48.6997
874.843793 64.351 42.5879
881.183272 66.492 42.6372
887.568689 68.556 25.6582
894.000378 69.870 3.0576
900.478673 70.179 -21.9038
907.003913 69.513 -42.3271
913.576437 68.650 -57.5581
920.196588 67.961 -76.3784
926.864712 67.545 -100.2231
933.581156 67.417 -142.2993
940.346270 67.178 146.6016
947.160407 66.794 79.7207
954.023921 67.155 48.0112
960.937172 68.282 24.1128
967.900519 69.565 4.7607
974.914325 71.058 -11.9238
981.978956 71.911 -37.8335
989.094780 71.131 -66.1924
996.262169 68.970 -78.1001
1003.481495 67.431 -82.8579
1010.753136 68.479 -31.8228
1018.077470 70.427 -9.1421
1025.454879 70.958 -41.3809
1032.885748 69.875 -64.5952
1040.370463 68.439 -75.4727
1047.909417 67.523 -87.8838
1055.503000 67.123 -87.5713
1063.151610 67.388 -74.8154
1070.855645 67.221 -93.1221
1078.615506 66.154 -105.1538
1086.431599 65.877 -92.5571
1094.304330 66.622 -102.9829
1102.234110 67.000 -94.4409
1110.221353 66.868 -62.9336
1118.266475 66.154 -83.9448
1126.369895 65.266 -99.1006
1134.532035 64.440 -119.5156
1142.753322 62.949 -137.7515
1151.034184 61.674 -73.7637
1159.375052 62.341 -63.5596
1167.776361 63.961 -79.2139
1176.238550 64.867 -104.6895
1184.762060 65.157 -95.7026
1193.347334 65.811 -55.2803
1201.994821 65.977 -78.8081
1210.704971 65.245 -100.0713
1219.478238 64.007 -109.0239
1228.315080 62.804 -108.1680
1237.215957 61.864 -111.9644
1246.181334 61.516 -98.9307
1255.211678 61.697 -99.5654
1264.307459 61.542 -107.6260
1273.469152 61.362 -107.5952
1282.697235 61.597 -109.8276
1291.992188 61.684 -119.6919
1301.354495 61.189 -127.8325
1310.784647 61.122 -108.5527
1320.283132 62.220 -101.4614
1329.850448 63.112 -116.5605
1339.487093 63.381 -123.5513
1349.193569 64.508 -100.4868
1358.970381 66.207 -108.3535
1368.818041 67.095 -129.2026
1378.737061 67.312 -151.0366
1388.727958 66.584 -177.4126
1398.791253 64.476 161.8301
1408.927471 62.034 -176.9688
1419.137140 61.505 -136.3594
1429.420793 62.216 -150.7466
1439.778965 62.205 -169.7607
1450.212197 61.445 -170.3164
1460.721033 61.025 -168.4731
1471.306019 61.525 -173.9336
1481.967709 62.532 173.8623
1492.706658 62.734 149.8579
1503.523426 62.348 133.4746
1514.418576 62.922 122.4116
1525.392678 63.666 77.6919
1536.446302 63.905 10.2046
1547.580025 64.091 -52.4624
1558.794428 64.336 -99.1108
1570.090095 63.805 -134.3428
1581.467615 63.052 -149.2842
1592.927581 63.438 -160.3359
1604.470591 63.466 172.4980
1616.097246 62.188 152.8032
1627.808153 61.343 -155.6025
1639.603922 62.234 -159.1084
1651.485168 63.122 175.4810
1663.452510 63.103 150.7124
1675.506573 62.188 129.5625
1687.647984 60.695 121.7246
1699.877377 60.301 132.9756
1712.195390 60.998 116.7788
1724.602663 61.106 89.9146
1737.099845 61.331 61.1704
1749.687587 62.473 1.9302
1762.366544 64.024 -164.5088
1775.137379 64.781 119.6450
1788.000756 64.114 60.1064
1800.957346 62.790 9.7466
1814.007826 61.901 -42.0957
1827.152874 61.038 -93.1895
1840.393177 59.940 -138.0698
1853.729425 58.640 -156.1797
1867.162312 58.606 -103.4604
1880.692540 60.380 -111.1836
1894.320813 62.313 -138.4766
1908.047843 63.421 -169.4702
1921.874344 63.608 163.6851
1935.801038 63.013 137.6792
1949.828650 61.506 116.0332
