* Measurement data measured by REW V5.31
* Source: Trace Arithmetic result A + B
* Format: Trace Arithmetic result A + B
* Dated: Apr 21, 2024 7:33:06 AM
* REW Settings:
*  C-weighting compensation: Off
*  Target level: 75.0 dB
* Note: ; Trace Arithmetic A plus B A = screen-p2-src B = A plus B 
* Measurement: screen-p2-lrss
* Smoothing: 1/48 octave
* Frequency Step: 96 ppo
* Start Frequency: 10.093689 Hz
*
* Freq(Hz) SPL(dB) Phase(degrees)
10.093689 66.961 -69.1849
10.166832 67.075 -70.8350
10.240505 67.213 -72.4725
10.314712 67.355 -74.1068
10.389457 67.500 -75.7474
10.464743 67.647 -77.4012
10.540575 67.800 -79.0579
10.616956 67.957 -80.7197
10.693891 68.114 -82.3932
10.771383 68.271 -84.0865
10.849437 68.429 -85.8029
10.928057 68.587 -87.5368
11.007246 68.743 -89.2849
11.087009 68.898 -91.0461
11.167350 69.050 -92.8292
11.248273 69.199 -94.6404
11.329783 69.345 -96.4643
11.411883 69.487 -98.2873
11.494578 69.624 -100.1110
11.577873 69.756 -101.9599
11.661771 69.883 -103.8122
11.746277 70.004 -105.6441
11.831395 70.120 -107.4491
11.917130 70.230 -109.2595
12.003487 70.335 -111.0548
12.090469 70.435 -112.8088
12.178081 70.532 -114.5127
12.266329 70.624 -116.1926
12.355216 70.714 -117.8368
12.444747 70.804 -119.4278
12.534926 70.895 -120.9576
12.625760 70.985 -122.4398
12.717251 71.079 -123.8820
12.809406 71.180 -125.2871
12.902228 71.287 -126.6332
12.995723 71.400 -127.9406
13.089895 71.523 -129.2433
13.184750 71.657 -130.5500
13.280292 71.802 -131.8269
13.376526 71.957 -133.1196
13.473458 72.122 -134.4773
13.571093 72.299 -135.8705
13.669434 72.485 -137.3004
13.768489 72.677 -138.8128
13.868261 72.873 -140.4303
13.968756 73.075 -142.1190
14.069979 73.278 -143.8927
14.171936 73.477 -145.7739
14.274632 73.675 -147.7626
14.378072 73.867 -149.8356
14.482261 74.049 -151.9809
14.587206 74.222 -154.2303
14.692910 74.384 -156.5618
14.799381 74.533 -158.9272
14.906624 74.666 -161.3502
15.014643 74.785 -163.8437
15.123446 74.889 -166.3380
15.233036 74.976 -168.8309
15.343421 75.047 -171.3650
15.454606 75.104 -173.8704
15.566596 75.145 -176.3260
15.679398 75.171 -178.7809
15.793018 75.186 178.8177
15.907460 75.191 176.4940
16.022732 75.185 174.2112
16.138840 75.172 171.9931
16.255788 75.155 169.8566
16.373585 75.135 167.7809
16.492234 75.114 165.7579
16.611744 75.094 163.7978
16.732119 75.075 161.8865
16.853367 75.059 159.9943
16.975494 75.047 158.1309
17.098505 75.038 156.2816
17.222408 75.030 154.4189
17.347209 75.024 152.5488
17.472914 75.016 150.6680
17.599530 75.006 148.7629
17.727063 74.992 146.8359
17.855521 74.971 144.9094
17.984909 74.943 142.9676
18.115235 74.907 141.0277
18.246506 74.863 139.1199
18.378727 74.810 137.2253
18.511907 74.751 135.3720
18.646052 74.686 133.5710
18.781169 74.616 131.8114
18.917265 74.545 130.1015
19.054347 74.473 128.4433
19.192423 74.402 126.8098
19.331499 74.333 125.2026
19.471583 74.265 123.6093
19.612682 74.196 122.0009
19.754804 74.125 120.3846
19.897956 74.047 118.7599
20.042144 73.960 117.1077
20.187378 73.860 115.4788
20.333664 73.744 113.8745
20.481010 73.610 112.3263
20.629424 73.460 110.9154
20.778913 73.294 109.6310
20.929486 73.121 108.5663
21.081150 72.946 107.7401
21.233912 72.787 107.1377
21.387782 72.651 106.8188
21.542767 72.556 106.6418
21.698874 72.514 106.5947
21.856113 72.526 106.5278
22.014492 72.594 106.2822
22.174018 72.707 105.8208
22.334700 72.848 104.9529
22.496546 73.004 103.7326
22.659566 73.149 102.0923
22.823766 73.274 100.0833
22.989157 73.358 97.8029
23.155745 73.397 95.2468
23.323542 73.383 92.6221
23.492554 73.315 89.8833
23.662790 73.196 87.2581
23.834261 73.032 84.6981
24.006973 72.834 82.3645
24.180938 72.614 80.2220
24.356163 72.388 78.3007
24.532658 72.167 76.5613
24.710431 71.962 74.8979
24.889493 71.775 73.2563
25.069853 71.602 71.4792
25.251519 71.431 69.5418
25.434502 71.247 67.3313
25.618811 71.029 64.9258
25.804456 70.761 62.2687
25.991445 70.424 59.5677
26.179790 70.009 56.8057
26.369500 69.507 54.2700
26.560584 68.919 51.9969
26.753053 68.253 50.2748
26.946917 67.527 49.1721
27.142185 66.762 48.9391
27.338869 66.005 49.5091
27.536977 65.284 51.0109
27.736522 64.643 53.1018
27.937512 64.095 55.6735
28.139959 63.643 58.3643
28.343872 63.263 61.0281
28.549264 62.935 63.5476
28.756143 62.629 65.9884
28.964522 62.335 68.4124
29.174411 62.045 70.9290
29.385821 61.763 73.6632
29.598763 61.495 76.6787
29.813248 61.253 80.0763
30.029287 61.060 83.9154
30.246891 60.939 88.1925
30.466073 60.930 92.8055
30.686842 61.052 97.4321
30.909212 61.307 101.7580
31.133193 61.659 105.3332
31.358797 62.052 108.0626
31.586035 62.432 109.9575
31.814921 62.745 111.3126
32.045465 62.979 112.5272
32.277680 63.140 113.9112
32.511577 63.275 115.8996
32.747169 63.449 118.5333
32.984469 63.717 121.6815
33.223488 64.121 124.9412
33.464239 64.644 127.7645
33.706735 65.244 129.9465
33.950987 65.874 131.4247
34.197010 66.506 132.4033
34.444816 67.145 133.0848
34.694417 67.814 133.5177
34.945827 68.539 133.6637
35.199059 69.326 133.1757
35.454126 70.150 131.7570
35.711041 70.968 129.2882
35.969818 71.728 125.7125
36.230470 72.381 121.1411
36.493011 72.898 115.8635
36.757455 73.262 110.1254
37.023814 73.465 104.1497
37.292104 73.516 98.2219
37.562338 73.430 92.6152
37.834530 73.233 87.4609
38.108695 72.955 82.8479
38.384846 72.626 78.8137
38.662999 72.272 75.3033
38.943167 71.909 72.1831
39.225365 71.540 69.3572
39.509608 71.160 66.7917
39.795911 70.771 64.5025
40.084289 70.384 62.5288
40.374756 70.019 60.8673
40.667328 69.705 59.3698
40.962020 69.458 57.7202
41.258848 69.266 55.5492
41.557827 69.092 52.5482
41.858972 68.883 48.5385
42.162299 68.581 43.4692
42.467824 68.134 37.3707
42.775564 67.493 30.2951
43.085533 66.615 22.2612
43.397749 65.454 13.1976
43.712227 63.961 2.8490
44.028983 62.087 -9.4843
44.348036 59.823 -25.6731
44.669400 57.375 -50.8844
44.993093 55.569 -93.8162
45.319131 55.382 -137.9813
45.647532 56.429 -162.5921
45.978313 57.736 -175.6240
46.311491 58.876 176.9379
46.647083 59.810 172.6800
46.985107 60.593 170.4542
47.325581 61.281 169.6409
47.668521 61.926 169.9233
48.013947 62.582 171.1352
48.361876 63.307 173.0946
48.712326 64.151 175.4799
49.065315 65.135 177.8197
49.420863 66.244 179.6042
49.778987 67.434 -179.5517
50.139706 68.649 -179.7882
50.503039 69.848 179.0152
50.869005 71.014 177.1454
51.237623 72.168 174.8880
51.608912 73.352 172.3194
51.982891 74.598 169.1684
52.359580 75.893 164.9030
52.739000 77.173 159.0370
53.121168 78.349 151.3958
53.506106 79.337 142.1489
53.893833 80.078 131.6648
54.284370 80.533 120.3995
54.677737 80.687 108.8621
55.073955 80.540 97.5820
55.473043 80.117 87.0870
55.875024 79.464 77.8504
56.279917 78.657 70.1965
56.687745 77.791 64.1965
57.098527 76.954 59.5253
57.512287 76.193 55.5978
57.929045 75.502 51.9305
58.348822 74.851 48.3437
58.771642 74.216 44.8498
59.197525 73.598 41.4291
59.626495 72.998 37.8958
60.058573 72.396 33.9935
60.493782 71.744 29.5767
60.932145 70.988 24.7350
61.373685 70.083 19.7064
61.818424 69.002 14.8011
62.266386 67.730 10.3064
62.717593 66.254 6.4752
63.172071 64.559 3.5960
63.629842 62.626 2.0618
64.090930 60.437 2.4958
64.555359 57.982 5.7296
65.023154 55.278 13.1992
65.494339 52.508 29.1347
65.968938 50.605 64.4294
66.446976 50.978 106.1111
66.928478 52.837 124.6548
67.413469 54.660 130.8483
67.901975 56.030 133.2086
68.394021 57.023 135.1982
68.889632 57.820 137.9168
69.388835 58.557 141.0768
69.891655 59.269 144.0351
70.398118 59.953 146.8110
70.908252 60.655 149.9728
71.422083 61.478 153.6418
71.939636 62.464 156.8661
72.460941 63.533 158.4300
72.986023 64.557 158.2032
73.514909 65.469 156.9680
74.047629 66.306 155.5493
74.584208 67.139 154.0827
75.124676 67.988 151.8920
75.669061 68.782 148.3262
76.217390 69.416 143.3332
76.769692 69.814 137.4856
77.325997 69.949 131.5042
77.886333 69.835 126.1149
78.450730 69.517 121.9282
79.019216 69.074 119.5431
79.591822 68.639 119.2855
80.168577 68.355 120.7375
80.749512 68.300 122.8713
81.334656 68.469 124.9349
81.924040 68.846 126.7617
82.517696 69.426 127.8786
83.115653 70.135 127.3572
83.717943 70.835 124.7393
84.324598 71.407 120.5264
84.935649 71.814 115.5499
85.551128 72.079 110.3501
86.171066 72.235 105.0864
86.795497 72.305 99.7877
87.424453 72.316 94.4837
88.057967 72.296 88.9745
88.696071 72.237 82.7466
89.338800 72.076 75.4145
89.986185 71.735 67.1075
90.638262 71.174 58.1713
91.295065 70.388 48.4755
91.956626 69.322 37.2144
92.622982 67.813 23.6293
93.294166 65.636 7.7316
93.970214 62.756 -9.9652
94.651161 60.169 170.9545
95.337042 59.870 140.5325
96.027894 60.982 127.7866
96.723752 61.906 119.2871
97.424652 62.426 114.2278
98.130631 62.657 111.4014
98.841726 62.710 110.2837
99.557974 62.700 110.6674
100.279412 62.712 112.0193
101.006078 62.813 114.0950
101.738010 63.092 116.7389
102.475245 63.609 118.8308
103.217823 64.313 119.0327
103.965782 65.095 116.8839
104.719161 65.856 112.2925
105.477999 66.488 105.1910
106.242336 66.876 95.9314
107.012212 66.939 85.4235
107.787666 66.649 74.7095
108.568740 66.018 64.5303
109.355474 65.046 55.3649
110.147909 63.720 48.1327
110.946086 62.093 44.4065
111.750047 60.344 44.5664
112.559834 58.621 46.7655
113.375489 56.924 51.0187
114.197055 55.444 61.2720
115.024574 54.890 78.9460
115.858089 55.640 93.4352
116.697645 56.872 96.0786
117.543284 57.747 91.3210
118.395051 58.144 86.0469
119.252990 58.451 84.2354
120.117147 59.086 84.3511
120.987565 60.044 82.4045
121.864291 61.079 77.5179
122.747370 62.053 70.7747
123.636848 62.949 62.8027
124.532771 63.749 53.3643
125.435187 64.374 42.1605
126.344142 64.739 29.7546
127.259684 64.839 17.3542
128.181860 64.755 5.7539
129.110718 64.566 -4.9952
130.046308 64.323 -14.8784
130.988677 64.059 -24.0759
131.937875 63.740 -33.2788
132.893951 63.266 -42.2090
133.856956 62.667 -48.8673
134.826938 62.205 -52.6379
135.803950 62.011 -57.4751
136.788041 61.755 -66.1228
137.779264 61.045 -76.3589
138.777669 59.748 -84.9731
139.783309 57.910 -89.6514
140.796237 55.787 -85.4595
141.816504 54.411 -60.8124
142.844165 54.994 -35.2198
143.879273 56.549 -28.5986
144.921881 57.927 -29.3080
145.972045 58.989 -30.4692
147.029819 60.172 -27.2510
148.095257 61.848 -22.1595
149.168417 63.735 -22.6633
150.249353 65.418 -28.7137
151.338121 66.755 -37.4512
152.434780 67.738 -47.5840
153.539385 68.374 -58.4165
154.651995 68.698 -69.1311
155.772667 68.756 -79.5361
156.901460 68.554 -89.5767
158.038432 68.137 -98.2515
159.183644 67.665 -104.9797
160.337154 67.291 -111.1562
161.499023 66.982 -118.7594
162.669312 66.525 -128.6840
163.848081 65.668 -139.7552
165.035392 64.325 -148.2990
166.231306 62.795 -150.6761
167.435887 61.623 -150.4836
168.649196 60.902 -154.5780
169.871298 60.249 -162.3077
171.102255 59.496 -171.0774
172.342133 58.750 178.2328
173.590995 57.969 161.6837
174.848907 56.761 137.7930
176.115934 54.748 108.6705
177.392143 52.185 74.8986
178.677599 51.508 -93.9972
179.972371 54.358 -134.6830
181.276525 57.831 -162.1027
182.590129 60.763 170.2631
183.913252 63.162 143.6455
185.245964 65.118 118.2910
186.588332 66.636 93.7152
187.940428 67.717 69.9294
189.302322 68.387 46.6993
190.674085 68.633 23.2007
192.055788 68.406 -1.2620
193.447503 67.654 -27.3884
194.849303 66.359 -56.3698
196.261262 64.675 -91.6250
197.683452 63.190 -142.7109
199.115948 62.791 152.7566
200.558824 63.462 105.1350
202.012156 64.265 70.8254
203.476019 64.445 40.4612
204.950490 63.588 11.6394
206.435646 61.577 -15.0510
207.931564 58.723 -43.7449
209.438322 56.806 -118.6890
210.955998 58.401 176.4128
212.484672 61.690 156.7285
214.024424 65.155 146.3289
215.575333 68.547 139.3987
217.137481 71.453 126.8713
218.710948 73.429 106.1099
220.295818 74.279 82.1733
221.892172 74.088 60.5972
223.500094 73.155 45.4016
225.119668 72.101 40.2671
226.750978 71.769 41.2991
228.394109 72.075 35.6157
230.049147 72.148 23.5110
231.716178 71.610 12.1892
233.395289 70.730 6.2969
235.086567 70.026 3.8735
236.790102 69.773 1.1311
238.505980 69.743 -6.5042
240.234293 69.239 -21.3049
241.975130 67.801 -33.6887
243.728581 66.027 -27.3777
245.494739 65.325 -18.7644
247.273695 65.366 -32.0259
249.065542 64.798 -56.4180
250.870374 63.140 -87.2432
252.688284 60.503 -131.1450
254.519367 57.827 155.7080
256.363720 57.439 118.1951
258.221437 59.420 104.5859
260.092616 62.133 99.2993
261.977354 65.026 96.6565
263.875750 67.569 86.5198
265.787903 69.336 68.8394
267.713911 70.177 48.1064
269.653877 70.288 29.5835
271.607900 69.980 13.3467
273.576083 69.252 -3.3508
275.558528 67.918 -18.3711
277.555338 66.147 -25.3225
279.566619 64.930 -19.0198
281.592474 65.057 -17.1912
283.633009 65.284 -33.0637
285.688331 64.460 -51.8381
287.758546 63.140 -47.3008
289.843763 63.070 -32.4465
291.944090 63.872 -47.6479
294.059638 64.127 -73.1938
296.190515 63.459 -101.3430
298.336833 61.971 -127.9333
300.498705 60.399 -148.0725
302.676243 60.491 -164.2185
304.869559 62.838 179.4138
307.078770 65.773 156.7822
309.303989 68.122 126.8386
311.545334 69.691 95.8262
313.802919 70.653 67.0569
316.076865 71.126 40.1394
318.367288 71.008 14.0911
320.674309 70.166 -9.3247
322.998047 68.701 -26.3391
325.338624 67.055 -35.4692
327.696162 65.846 -39.6382
330.070783 65.417 -43.7151
332.462612 65.400 -53.3997
334.871773 65.111 -67.5750
337.298392 64.494 -77.9690
339.742595 64.050 -87.2317
342.204510 63.577 -105.4382
344.684265 62.365 -128.4170
347.181989 60.134 -145.7917
349.697813 57.514 -143.8608
352.231868 56.524 -138.5403
354.784285 57.704 -148.9619
357.355198 58.987 -176.0608
359.944741 59.371 152.2783
362.553049 58.800 124.0571
365.180258 57.664 107.1467
367.826505 57.866 122.0164
370.491927 60.627 150.5857
373.176665 63.910 145.5435
375.880856 66.732 131.2195
378.604644 68.933 113.5833
381.348169 70.282 91.7537
384.111575 70.518 67.8279
386.895006 69.624 49.2720
389.698607 68.232 45.5007
392.522524 67.523 49.0034
395.366904 68.031 52.1987
398.231895 69.267 51.7388
401.117648 70.292 41.3726
404.024312 70.707 28.5269
406.952038 70.712 17.5208
409.900981 70.625 8.5032
412.871292 70.655 0.0549
415.863128 70.684 -11.7400
418.876643 70.464 -25.8013
421.911996 69.840 -41.7361
424.969344 68.710 -57.6201
428.048847 67.193 -71.6331
431.150666 65.514 -86.5989
434.274961 63.816 -103.5417
437.421897 62.793 -120.8147
440.591636 63.165 -151.0176
443.784345 63.969 166.3386
447.000189 64.366 127.6104
450.239337 64.562 101.1062
453.501956 64.756 81.6387
456.788219 64.953 69.7935
460.098294 65.334 61.8665
463.432356 65.686 52.3672
466.790578 66.133 50.0183
470.173135 66.915 47.9211
473.580203 67.497 37.8018
477.011961 67.607 28.0000
480.468586 67.561 23.6611
483.950259 67.675 20.1309
487.457163 67.818 14.5469
490.989478 68.123 12.6270
494.547390 68.639 7.0220
498.131084 68.959 -3.5225
501.740748 68.767 -16.6851
505.376568 67.894 -30.1089
509.038735 66.299 -42.0649
512.727439 64.040 -49.6177
516.442874 62.018 -44.8486
520.185232 62.978 17.9619
523.954708 66.310 61.0205
527.751500 68.998 50.2681
531.575805 70.108 24.7705
535.427822 69.986 6.1133
539.307753 69.877 4.5566
543.215800 70.486 0.4170
547.152165 70.820 -15.1953
551.117055 70.278 -29.1870
555.110677 69.371 -33.9824
559.133237 68.725 -37.3076
563.184947 68.229 -44.2549
567.266018 67.414 -54.7368
571.376661 66.798 -41.1133
575.517092 67.576 -16.8564
579.687526 68.609 -28.3389
583.888181 69.043 -41.8906
588.119275 69.411 -49.8066
592.381030 69.590 -65.8213
596.673667 68.756 -87.6709
600.997410 66.769 -106.2173
605.352485 64.233 -116.4639
609.739119 62.772 -105.5742
614.157540 63.225 6.7344
618.607979 64.375 -5.7812
623.090667 65.508 -28.7134
627.605839 66.162 -53.7075
632.153730 65.944 -83.2305
636.734576 65.104 -105.2827
641.348617 65.110 -20.7021
645.996094 65.949 -53.3237
650.677248 66.775 -114.4961
655.392323 68.411 148.4131
660.141566 70.659 86.6577
664.925224 72.302 45.8945
669.743546 72.893 13.7036
674.596784 72.925 -6.6777
679.485191 73.119 -22.0742
684.409020 72.997 -42.7412
689.368530 71.946 -60.9453
694.363979 70.387 -65.4878
699.395626 69.443 -63.4971
704.463736 69.295 -68.6582
709.568570 69.570 -73.4839
714.710396 70.010 -82.8179
719.889483 69.931 -99.6895
725.106099 68.965 -117.5977
730.360516 67.237 -130.4722
735.653010 65.763 -131.0874
740.983855 66.113 -119.3262
746.353329 67.308 -138.7202
751.761713 67.587 178.9565
757.209288 66.833 125.1973
762.696339 66.484 70.8950
768.223151 67.283 23.3989
773.790013 67.727 -18.5806
779.397214 67.228 -50.5098
785.045047 66.998 -52.5928
790.733808 68.321 -39.0225
796.463791 69.720 -63.1079
802.235296 70.069 -95.1533
808.048623 69.264 -126.4565
813.904077 67.436 -149.6509
819.801961 65.599 -160.8438
825.742584 65.007 -178.4839
831.726255 65.645 150.1855
837.753287 66.688 109.2363
843.823992 67.325 68.2354
849.938689 68.019 39.4009
856.097695 69.034 12.7373
862.301332 69.339 -18.9375
868.549922 68.225 -44.9805
874.843793 66.132 -53.5723
881.183272 64.594 -46.7124
887.568689 65.229 -0.5757
894.000378 67.029 -5.5161
900.478673 68.246 -23.6245
907.003913 68.568 -39.6426
913.576437 68.677 -46.2817
920.196588 69.667 -46.4937
926.864712 71.649 -45.0664
933.581156 73.522 -58.6543
940.346270 74.629 -79.9224
947.160407 75.128 -101.3809
954.023921 75.135 -125.4028
960.937172 74.183 -153.4653
967.900519 71.888 -177.5234
974.914325 68.550 -176.5913
981.978956 65.800 -148.6650
989.094780 65.254 -153.4458
996.262169 65.936 -156.0020
1003.481495 67.504 -123.4551
1010.753136 68.948 -144.1230
1018.077470 68.938 179.5083
1025.454879 67.230 147.8965
1032.885748 64.819 143.2134
1040.370463 63.936 130.0005
1047.909417 64.563 -42.6040
1055.503000 65.841 -93.4746
1063.151610 67.003 -129.1206
1070.855645 67.139 -158.7686
1078.615506 66.914 -178.0405
1086.431599 67.076 162.5107
1094.304330 67.033 138.2979
1102.234110 66.306 116.9248
1110.221353 65.800 106.1597
1118.266475 66.902 96.6782
1126.369895 68.566 68.4062
1134.532035 69.098 24.1421
1142.753322 68.331 -29.1641
1151.034184 67.770 153.9673
1159.375052 68.530 78.4365
1167.776361 69.297 32.3887
1176.238550 69.446 -6.0498
1184.762060 68.961 -41.1777
1193.347334 67.382 -63.8613
1201.994821 65.162 -68.6079
1210.704971 63.478 -73.0029
1219.478238 63.378 -72.9780
1228.315080 64.350 -86.5605
1237.215957 65.157 -108.5796
1246.181334 64.747 -136.3916
1255.211678 63.066 -155.5190
1264.307459 61.253 -155.8184
1273.469152 61.182 -137.0444
1282.697235 63.166 -143.1479
1291.992188 65.181 -167.7690
1301.354495 65.795 151.7554
1310.784647 64.807 108.7681
1320.283132 63.536 77.1143
1329.850448 63.120 145.2295
1339.487093 63.580 112.1987
1349.193569 64.159 71.4473
1358.970381 64.827 38.6289
1368.818041 65.683 8.5605
1378.737061 66.398 -26.9741
1388.727958 66.682 -66.5068
1398.791253 66.189 -105.4629
1408.927471 65.250 -144.6636
1419.137140 64.618 171.6152
1429.420793 64.887 143.4175
1439.778965 65.577 129.9897
1450.212197 66.296 81.2954
1460.721033 66.898 26.9917
1471.306019 66.921 -27.0425
1481.967709 66.989 -102.9268
1492.706658 67.250 105.8887
1503.523426 67.443 38.5063
1514.418576 68.042 -14.2061
1525.392678 68.146 -80.4287
1536.446302 67.328 77.8091
1547.580025 66.526 29.4248
1558.794428 66.170 -3.5171
1570.090095 66.045 -23.7837
1581.467615 66.358 -34.4331
1592.927581 67.103 -52.5933
1604.470591 67.113 -81.6011
1616.097246 66.127 -109.0439
1627.808153 65.885 -143.4805
1639.603922 67.272 141.1006
1651.485168 69.001 57.4810
1663.452510 70.538 10.2539
1675.506573 72.076 -21.2827
1687.647984 72.828 -53.6548
1699.877377 72.151 -84.4805
1712.195390 70.694 -107.6992
1724.602663 69.306 -125.7051
1737.099845 68.221 -131.5552
1749.687587 67.579 -91.4048
1762.366544 68.179 -96.4126
1775.137379 69.229 -116.4590
1788.000756 69.376 -141.5264
1800.957346 68.057 -158.5884
1814.007826 66.397 -156.8672
1827.152874 66.320 -149.7397
1840.393177 67.472 -149.4722
1853.729425 67.975 -169.0454
1867.162312 67.681 173.5762
1880.692540 67.712 159.9561
1894.320813 67.636 140.0449
1908.047843 67.414 144.1094
1921.874344 67.771 165.5308
1935.801038 68.116 171.0156
1949.828650 67.421 134.3535
1963.957912 65.763 98.5576
1978.189561 63.572 105.8379
1992.524338 61.176 114.6069
2006.962991 60.463 48.1240
2021.506272 62.226 -24.3716
2036.154940 64.805 -64.6138
