* Measurement data measured by REW V5.31
* Source: Scarlett 2i4 USB, MICROPHONE, R, volume: no control. Timing signal peak level -30.2 dBFS, measurement signal peak level -23.7 dBFS
* Format: 512k Log Swept Sine, 1 sweep at -18.0 dBFS using an acoustic timing reference
* Dated: Apr 16, 2024 10:07:16 AM
* REW Settings:
*  C-weighting compensation: Off
*  Target level: 75.0 dB
* Note: ; Delay -4.2726 ms (-1.466 m, -(4 ft 9.7 in)) using IR start time relative to Acoustic reference played from SPEAKER L with no timing offset
* Measurement: screen-p1-rr
* Smoothing: 1/48 octave
* Frequency Step: 96 ppo
* Start Frequency: 10.093689 Hz
*
* Freq(Hz) SPL(dB) Phase(degrees)
10.093689 13.918 -61.7419
10.166832 14.090 -65.6814
10.240505 14.299 -69.6403
10.314712 14.512 -73.4061
10.389457 14.714 -76.7631
10.464743 14.857 -79.5715
10.540575 14.902 -82.2113
10.616956 14.885 -84.6588
10.693891 14.824 -86.7386
10.771383 14.728 -88.2263
10.849437 14.579 -89.1071
10.928057 14.384 -89.4864
11.007246 14.186 -89.3250
11.087009 14.032 -88.5751
11.167350 13.935 -87.1013
11.248273 13.877 -84.8170
11.329783 13.887 -82.0396
11.411883 14.003 -79.1848
11.494578 14.263 -76.4955
11.577873 14.662 -73.7329
11.661771 15.150 -71.3143
11.746277 15.673 -69.6016
11.831395 16.211 -68.7166
11.917130 16.783 -68.3427
12.003487 17.359 -68.4652
12.090469 17.897 -69.0907
12.178081 18.376 -70.2464
12.266329 18.808 -71.8514
12.355216 19.190 -73.7245
12.444747 19.511 -75.7388
12.534926 19.767 -78.0078
12.625760 19.959 -80.5774
12.717251 20.088 -83.2208
12.809406 20.152 -85.7614
12.902228 20.149 -88.4540
12.995723 20.079 -91.2654
13.089895 19.940 -93.9629
13.184750 19.733 -96.4201
13.280292 19.454 -98.8869
13.376526 19.107 -101.2363
13.473458 18.693 -103.2335
13.571093 18.204 -104.8469
13.669434 17.650 -106.1174
13.768489 17.054 -106.9413
13.868261 16.418 -107.1014
13.968756 15.740 -106.4115
14.069979 15.083 -104.9835
14.171936 14.513 -102.9808
14.274632 14.026 -100.0192
14.378072 13.644 -96.4745
14.482261 13.413 -93.1198
14.587206 13.363 -90.0495
14.692910 13.444 -87.4394
14.799381 13.578 -85.7461
14.906624 13.740 -85.1464
15.014643 13.924 -85.4475
15.123446 14.068 -86.4754
15.233036 14.137 -88.3002
15.343421 14.137 -90.9645
15.454606 14.052 -94.0470
15.566596 13.868 -97.5422
15.679398 13.583 -101.7842
15.793018 13.183 -106.2844
15.907460 12.663 -110.9823
16.022732 12.015 -116.3900
16.138840 11.203 -121.9694
16.255788 10.222 -127.6494
16.373585 9.035 -134.0573
16.492234 7.486 -140.5270
16.611744 5.358 -147.0132
16.732119 2.929 -154.2972
16.853367 0.857 -161.2521
16.975494 -0.599 -165.1745
17.098505 -0.967 -0.4865
17.222408 0.466 -6.9837
17.347209 3.287 -15.2897
17.472914 6.050 -23.1918
17.599530 8.011 -31.7286
17.727063 9.493 -40.5427
17.855521 10.713 -48.8145
17.984909 11.715 -57.6856
18.115235 12.510 -66.3863
18.246506 13.136 -74.6032
18.378727 13.587 -83.3595
18.511907 13.859 -91.4268
18.646052 13.953 -99.4721
18.781169 13.845 -107.5631
18.917265 13.506 -114.6125
19.054347 12.920 -121.8213
19.192423 11.984 -127.9587
19.331499 10.615 -132.6113
19.471583 8.878 -135.4240
19.612682 6.746 -132.3083
19.754804 4.575 -114.6864
19.897956 4.225 -78.0416
20.042144 6.229 -51.9935
20.187378 8.656 -44.0954
20.333664 10.544 -44.1472
20.481010 12.014 -46.4686
20.629424 12.965 -49.1636
20.778913 13.440 -52.4145
20.929486 13.536 -53.7111
21.081150 13.296 -53.5995
21.233912 13.022 -50.0566
21.387782 12.862 -41.7785
21.542767 13.245 -30.8281
21.698874 14.457 -19.8806
21.856113 16.058 -12.7966
22.014492 17.674 -10.4466
22.174018 19.172 -10.7372
22.334700 20.341 -13.2930
22.496546 21.189 -16.9258
22.659566 21.698 -20.8227
22.823766 21.860 -25.0406
22.989157 21.654 -27.9923
23.155745 21.092 -29.9473
23.323542 20.219 -28.2957
23.492554 19.277 -21.7547
23.662790 19.035 -8.2764
23.834261 19.678 9.1187
24.006973 21.176 21.0854
24.180938 23.093 27.0464
24.356163 24.743 28.1113
24.532658 26.091 26.9632
24.710431 27.091 24.8955
24.889493 27.796 22.7832
25.069853 28.274 21.6315
25.251519 28.657 21.7528
25.434502 29.082 23.8652
25.618811 29.739 27.0194
25.804456 30.728 30.8119
25.991445 31.970 32.8570
26.179790 33.371 33.2178
26.369500 34.729 31.0224
26.560584 35.974 27.2421
26.753053 37.025 21.8993
26.946917 37.868 15.8402
27.142185 38.488 8.9895
27.338869 38.882 2.2265
27.536977 39.049 -4.6890
27.736522 38.997 -10.8150
27.937512 38.747 -16.1724
28.139959 38.333 -19.9473
28.343872 37.874 -21.8036
28.549264 37.495 -21.2354
28.756143 37.438 -18.8911
28.964522 37.773 -16.0522
29.174411 38.488 -14.2895
29.385821 39.356 -14.8440
29.598763 40.229 -17.3719
29.813248 40.959 -21.6689
30.029287 41.499 -26.7973
30.246891 41.825 -32.5566
30.466073 41.937 -38.0930
30.686842 41.859 -43.0510
30.909212 41.626 -47.0415
31.133193 41.327 -49.4235
31.358797 41.079 -50.2676
31.586035 40.997 -49.5690
31.814921 41.186 -48.4605
32.045465 41.606 -47.9321
32.277680 42.175 -48.6254
32.511577 42.743 -50.9215
32.747169 43.218 -54.3745
32.984469 43.543 -58.6778
33.223488 43.684 -63.3883
33.464239 43.638 -67.9020
33.706735 43.419 -71.9266
33.950987 43.059 -75.0239
34.197010 42.622 -76.7319
34.444816 42.206 -76.9837
34.694417 41.906 -75.8868
34.945827 41.812 -74.0046
35.199059 41.935 -72.4091
35.454126 42.201 -71.7540
35.711041 42.518 -72.3022
35.969818 42.788 -74.0159
36.230470 42.942 -76.4920
36.493011 42.955 -79.2648
36.757455 42.823 -81.9473
37.023814 42.566 -84.1510
37.292104 42.228 -85.5142
37.562338 41.878 -85.9401
37.834530 41.576 -85.6005
38.108695 41.358 -84.8417
38.384846 41.223 -84.0973
38.662999 41.128 -83.6795
38.943167 41.020 -83.5509
39.225365 40.871 -83.4306
39.509608 40.684 -83.0331
39.795911 40.489 -82.2021
40.084289 40.321 -81.0139
40.374756 40.186 -79.7767
40.667328 40.039 -78.7750
40.962020 39.805 -77.8302
41.258848 39.434 -76.1313
41.557827 38.986 -72.2827
41.858972 38.716 -64.7700
42.162299 39.015 -53.8030
42.467824 40.069 -43.1989
42.775564 41.600 -36.9763
43.085533 43.171 -35.5825
43.397749 44.536 -37.5492
43.712227 45.622 -41.4009
44.028983 46.434 -46.0922
44.348036 47.010 -50.9497
44.669400 47.397 -55.5654
44.993093 47.648 -59.7366
45.319131 47.807 -63.4265
45.647532 47.904 -66.7096
45.978313 47.954 -69.6978
46.311491 47.959 -72.4702
46.647083 47.917 -75.0391
46.985107 47.828 -77.3639
47.325581 47.698 -79.3915
47.668521 47.538 -81.0960
48.013947 47.357 -82.4930
48.361876 47.161 -83.6293
48.712326 46.950 -84.5576
49.065315 46.719 -85.3123
49.420863 46.456 -85.8866
49.778987 46.148 -86.2086
50.139706 45.788 -86.1240
50.503039 45.374 -85.4068
50.869005 44.923 -83.8075
51.237623 44.464 -81.1106
51.608912 44.042 -77.1106
51.982891 43.726 -71.4630
52.359580 43.661 -63.6816
52.739000 44.066 -53.9217
53.121168 45.068 -44.2561
53.506106 46.509 -37.7309
53.893833 48.067 -35.5977
54.284370 49.482 -37.1782
54.677737 50.623 -41.1970
55.073955 51.453 -46.4854
55.473043 51.987 -52.1277
55.875024 52.271 -57.4538
56.279917 52.366 -62.0438
56.687745 52.347 -65.6939
57.098527 52.280 -68.4585
57.512287 52.212 -70.6019
57.929045 52.158 -72.4521
58.348822 52.111 -74.2629
58.771642 52.048 -76.1680
59.197525 51.945 -78.1850
59.626495 51.778 -80.2707
60.058573 51.527 -82.3543
60.493782 51.165 -84.3041
60.932145 50.664 -85.8512
61.373685 50.009 -86.5110
61.818424 49.222 -85.4771
62.266386 48.406 -81.7842
62.717593 47.764 -74.9984
63.172071 47.513 -66.3141
63.629842 47.686 -58.1187
64.090930 48.131 -51.6535
64.555359 48.697 -46.5338
65.023154 49.335 -42.1444
65.494339 50.037 -38.5549
65.968938 50.754 -36.1201
66.446976 51.422 -34.6822
66.928478 52.028 -33.5689
67.413469 52.627 -32.3329
67.901975 53.265 -31.3340
68.394021 53.904 -31.3639
68.889632 54.444 -32.6193
69.388835 54.802 -34.4444
69.891655 54.980 -35.8937
70.398118 55.047 -36.2781
70.908252 55.085 -35.5488
71.422083 55.137 -33.9558
71.939636 55.226 -31.4422
72.460941 55.423 -27.5247
72.986023 55.866 -21.9693
73.514909 56.684 -15.6019
74.047629 57.858 -10.2488
74.584208 59.226 -7.2494
75.124676 60.622 -6.5781
75.669061 61.973 -7.4432
76.217390 63.285 -9.2631
76.769692 64.567 -12.0862
77.325997 65.787 -16.2162
77.886333 66.882 -21.7333
78.450730 67.804 -28.3260
79.019216 68.533 -35.6102
79.591822 69.063 -43.2636
80.168577 69.387 -50.9822
80.749512 69.514 -58.3277
81.334656 69.492 -64.7390
81.924040 69.415 -69.9734
82.517696 69.370 -74.4834
83.115653 69.360 -79.1349
83.717943 69.306 -84.3855
84.324598 69.125 -89.8698
84.935649 68.799 -94.9107
85.551128 68.365 -99.0871
86.171066 67.868 -102.3553
86.795497 67.340 -104.7344
87.424453 66.815 -106.1347
88.057967 66.333 -106.6885
88.696071 65.909 -106.7880
89.338800 65.526 -106.4431
89.986185 65.208 -105.0858
90.638262 65.063 -102.4361
91.295065 65.203 -99.2567
91.956626 65.635 -96.9326
92.622982 66.243 -96.6748
93.294166 66.841 -98.9327
93.970214 67.271 -103.0132
94.651161 67.495 -107.5088
95.337042 67.598 -111.3864
96.027894 67.700 -114.8186
96.723752 67.831 -118.7544
97.424652 67.936 -123.7496
98.130631 67.945 -129.7054
98.841726 67.817 -136.3277
99.557974 67.536 -143.3601
100.279412 67.102 -150.5883
101.006078 66.525 -157.8761
101.738010 65.826 -165.2116
102.475245 65.026 -172.7149
103.217823 64.144 179.3894
103.965782 63.206 170.7968
104.719161 62.259 161.0804
105.477999 61.386 149.6515
106.242336 60.722 135.8506
107.012212 60.430 119.2180
107.787666 60.586 100.1276
108.568740 61.099 80.2706
109.355474 61.812 61.8536
110.147909 62.618 46.1644
110.946086 63.460 33.2026
111.750047 64.281 22.2689
112.559834 65.016 12.6158
113.375489 65.603 3.8458
114.197055 66.018 -3.7959
115.024574 66.317 -9.7149
115.858089 66.614 -13.9353
116.697645 66.969 -17.4240
117.543284 67.341 -21.1754
118.395051 67.635 -25.5442
119.252990 67.761 -30.2751
120.117147 67.670 -34.5515
120.987565 67.398 -37.3042
121.864291 67.057 -37.8016
122.747370 66.798 -36.0479
123.636848 66.760 -32.6553
124.532771 67.027 -28.3589
125.435187 67.585 -24.6799
126.344142 68.266 -23.2612
127.259684 68.923 -23.1116
128.181860 69.603 -22.4448
129.110718 70.396 -21.9163
130.046308 71.252 -22.9512
130.988677 72.062 -25.6856
131.937875 72.735 -29.8908
132.893951 73.191 -35.2147
133.856956 73.380 -40.9225
134.826938 73.298 -46.0272
135.803950 73.012 -49.3927
136.788041 72.686 -50.0316
137.779264 72.545 -48.2145
138.777669 72.704 -46.0239
139.783309 73.070 -45.3072
140.796237 73.475 -46.1691
141.816504 73.816 -47.9568
142.844165 74.072 -49.8735
143.879273 74.306 -51.1940
144.921881 74.599 -52.2214
145.972045 74.960 -53.8837
147.029819 75.322 -56.7739
148.095257 75.574 -61.1588
149.168417 75.599 -66.6587
150.249353 75.332 -72.1272
151.338121 74.801 -76.1011
152.434780 74.131 -77.6765
153.539385 73.496 -76.7485
154.651995 73.070 -73.8426
155.772667 72.910 -71.1588
156.901460 72.849 -70.5460
158.038432 72.697 -70.6182
159.183644 72.493 -68.8307
160.337154 72.473 -64.4753
161.499023 72.844 -59.2649
162.669312 73.563 -56.0762
163.848081 74.374 -56.3931
165.035392 75.029 -59.7119
166.231306 75.390 -64.5765
167.435887 75.468 -69.0363
168.649196 75.382 -72.1713
169.871298 75.234 -74.6581
171.102255 75.049 -76.9432
172.342133 74.828 -79.0345
173.590995 74.532 -81.5542
174.848907 74.059 -84.5583
176.115934 73.350 -86.2916
177.392143 72.551 -84.0079
178.677599 72.042 -77.0519
179.972371 72.099 -69.5045
181.276525 72.556 -65.5129
182.590129 73.084 -64.6138
183.913252 73.530 -65.0258
185.245964 73.909 -65.5264
186.588332 74.328 -65.5507
187.940428 74.873 -65.7634
189.302322 75.492 -67.9539
190.674085 76.018 -72.7781
192.055788 76.324 -79.3223
193.447503 76.361 -86.7546
194.849303 76.102 -94.7340
196.261262 75.511 -102.7686
197.683452 74.576 -109.6795
199.115948 73.375 -114.0792
200.558824 72.088 -115.6418
202.012156 70.877 -116.6514
203.476019 69.637 -120.8992
204.950490 68.001 -128.5990
206.435646 65.916 -131.7954
207.931564 64.857 -66.4990
209.438322 66.263 -31.4640
210.955998 68.238 -38.7384
212.484672 69.639 -49.3079
214.024424 70.467 -59.7760
215.575333 70.785 -71.8502
217.137481 70.452 -86.8739
218.710948 69.281 -103.6008
220.295818 67.238 -120.8597
221.892172 64.867 -143.0323
223.500094 64.338 62.3973
225.119668 66.417 27.8011
226.750978 68.738 9.8170
228.394109 70.400 -6.0870
230.049147 71.435 -20.5587
231.716178 71.959 -34.6246
233.395289 71.989 -49.2791
235.086567 71.490 -64.3829
236.790102 70.456 -79.6248
238.505980 68.898 -96.2290
240.234293 66.821 -117.6362
241.975130 64.499 -154.8914
243.728581 63.236 70.6350
245.494739 63.859 26.4321
247.273695 64.915 1.8676
249.065542 65.376 -21.8842
250.870374 65.158 -49.6718
252.688284 65.030 -90.8756
254.519367 66.227 -165.0825
256.363720 68.400 136.4257
258.221437 70.288 100.8290
260.092616 71.299 72.4026
261.977354 71.280 48.3781
263.875750 70.255 30.4099
265.787903 68.487 23.6975
267.713911 66.892 36.3688
269.653877 66.882 56.0751
271.607900 68.271 64.9700
273.576083 69.814 63.7695
275.558528 70.868 56.6132
277.555338 71.347 48.8190
279.566619 71.428 43.1995
281.592474 71.290 39.2107
283.633009 70.998 36.2321
285.688331 70.668 35.9435
287.758546 70.559 38.1968
289.843763 70.915 42.0427
291.944090 71.709 43.6908
294.059638 72.439 37.7622
296.190515 72.541 25.9915
298.336833 71.775 14.4994
300.498705 70.389 11.5189
302.676243 69.333 22.6559
304.869559 69.457 30.5105
307.078770 70.141 25.6317
309.303989 70.421 11.0792
311.545334 69.722 -10.6426
313.802919 67.787 -36.0389
316.076865 64.987 -69.9469
318.367288 63.735 167.1841
320.674309 65.678 138.3027
322.998047 67.873 119.3007
325.338624 69.064 100.9641
327.696162 69.548 89.9550
330.070783 69.962 85.6301
332.462612 70.237 76.7511
334.871773 69.862 65.5221
337.298392 68.953 63.2512
339.742595 68.292 69.4622
342.204510 68.170 70.8506
344.684265 68.247 70.0261
347.181989 68.425 69.7050
349.697813 68.660 67.0300
352.231868 68.878 62.9575
354.784285 69.033 56.8214
357.355198 68.812 44.8380
359.944741 67.767 29.9395
362.553049 65.753 20.4392
365.180258 63.327 27.1403
367.826505 62.219 57.2487
370.491927 62.978 65.8513
373.176665 63.598 50.6292
375.880856 63.261 33.5365
378.604644 62.366 19.3278
381.348169 61.392 3.5552
384.111575 60.882 -12.0880
386.895006 61.776 -23.8203
389.698607 63.581 -44.0912
392.522524 64.698 -76.9575
395.366904 64.500 -108.7871
398.231895 63.333 -127.6182
401.117648 62.188 -133.5947
404.024312 61.987 -134.2292
406.952038 63.123 -126.1665
409.900981 64.797 -128.0776
412.871292 65.731 -144.6724
415.863128 65.494 -162.9341
418.876643 64.278 -176.1313
421.911996 62.429 176.4644
424.969344 60.553 178.8574
428.048847 60.126 -139.9980
431.150666 61.278 -125.3999
434.274961 62.093 -137.3867
437.421897 62.124 -146.4250
440.591636 61.881 -150.0310
443.784345 61.608 -155.0073
447.000189 61.011 -164.7910
450.239337 59.658 -177.6494
453.501956 57.349 172.3677
456.788219 54.825 -162.1475
460.098294 54.598 -82.0234
463.432356 56.549 -79.3220
466.790578 58.338 -87.4614
470.173135 59.143 -101.1924
473.580203 58.762 -116.3030
477.011961 57.277 -124.7432
480.468586 55.490 -108.7573
483.950259 55.125 -82.7451
487.457163 56.204 -75.8708
490.989478 57.154 -82.8589
494.547390 57.141 -95.8337
498.131084 56.045 -107.4287
501.740748 54.153 -109.6338
505.376568 52.565 -82.8784
509.038735 52.595 -63.4823
512.727439 53.312 -67.6841
516.442874 53.567 -77.6211
520.185232 53.308 -87.3281
523.954708 53.329 -89.6353
527.751500 54.409 -95.3130
531.575805 55.607 -120.0334
535.427822 56.000 -154.4087
539.307753 56.052 177.2354
543.215800 57.204 167.1299
547.152165 59.108 150.7290
551.117055 60.127 119.9565
555.110677 59.838 89.8862
559.133237 58.832 63.1064
563.184947 57.625 25.4697
567.266018 56.546 -67.1218
571.376661 56.390 -159.9399
575.517092 57.053 168.3079
579.687526 57.705 147.6470
583.888181 57.821 136.3677
588.119275 57.892 160.0247
592.381030 58.314 161.5352
596.673667 59.116 161.9573
600.997410 60.620 167.4155
605.352485 61.905 157.3284
609.739119 62.038 139.2629
614.157540 60.865 125.5273
618.607979 59.195 136.2222
623.090667 59.077 166.5093
627.605839 60.669 173.4790
632.153730 62.231 166.3601
636.734576 62.934 152.3604
641.348617 62.692 138.5444
645.996094 62.058 135.7534
650.677248 62.019 137.9814
655.392323 62.144 125.1797
660.141566 61.453 107.3806
664.925224 60.017 95.8713
669.743546 58.755 90.9436
674.596784 58.706 85.8062
679.485191 59.779 71.1167
684.409020 60.798 44.0222
689.368530 60.818 9.9883
694.363979 59.446 -20.3171
699.395626 57.145 -35.9565
704.463736 55.288 -49.2178
709.568570 55.346 -85.3464
714.710396 57.669 130.1714
719.889483 60.563 83.6455
725.106099 62.837 55.6492
730.360516 64.431 33.8054
735.653010 65.243 12.3306
740.983855 65.080 -8.3508
746.353329 64.030 -22.8894
751.761713 62.519 -30.5930
757.209288 60.942 -33.6963
762.696339 59.548 -39.3770
768.223151 58.662 -25.3765
773.790013 59.974 43.9641
779.397214 62.668 39.7112
785.045047 64.737 20.0718
790.733808 65.627 -5.5713
796.463791 65.240 -33.8022
802.235296 63.657 -61.9937
808.048623 61.218 -94.4338
813.904077 58.511 -149.9045
819.801961 57.349 98.6294
825.742584 58.478 60.3430
831.726255 60.248 33.4900
837.753287 61.256 1.8242
843.823992 61.018 -31.7090
849.938689 59.735 -60.2390
856.097695 58.028 -76.4846
862.301332 56.631 -85.1968
868.549922 56.471 -83.9834
874.843793 57.761 -89.6748
881.183272 58.568 -113.7759
887.568689 58.221 -132.4678
894.000378 57.855 -141.9780
900.478673 58.429 -149.0212
907.003913 59.551 -161.7451
913.576437 59.528 166.0400
920.196588 57.960 140.0898
926.864712 57.168 146.6504
933.581156 59.044 -124.3943
940.346270 61.426 -146.6272
947.160407 62.782 168.7827
954.023921 63.271 128.2820
960.937172 63.270 90.5752
967.900519 62.443 52.1235
974.914325 60.408 15.6040
981.978956 57.248 -15.2310
989.094780 54.611 -57.2271
996.262169 55.438 -173.8367
1003.481495 56.987 135.7229
1010.753136 56.921 95.7275
1018.077470 55.319 67.5752
1025.454879 53.257 70.3308
1032.885748 52.811 157.2832
1040.370463 54.421 154.9883
1047.909417 55.834 125.9551
1055.503000 55.961 85.5771
1063.151610 54.450 24.2007
1070.855645 52.235 -76.8418
1078.615506 51.395 -109.3682
1086.431599 51.853 -113.9019
1094.304330 52.690 -117.3262
1102.234110 53.254 -128.0938
1110.221353 53.635 -136.0835
1118.266475 54.101 -156.0654
1126.369895 54.493 133.4883
1134.532035 55.626 11.9785
1142.753322 57.375 -21.2310
1151.034184 58.766 -40.9136
1159.375052 59.842 -52.9004
1167.776361 60.188 -73.8115
1176.238550 59.147 -100.9204
1184.762060 56.783 -130.4414
1193.347334 54.178 101.1235
1201.994821 54.229 47.6577
1210.704971 55.670 27.0776
1219.478238 56.340 5.3730
1228.315080 56.122 -16.6904
1237.215957 54.822 -40.2334
1246.181334 52.933 -51.1870
1255.211678 51.385 -118.0957
1264.307459 49.905 80.3892
1273.469152 48.458 16.7983
1282.697235 48.758 -108.3696
1291.992188 51.063 -126.1724
1301.354495 52.970 -148.3794
1310.784647 53.309 -171.3994
1320.283132 52.069 173.2803
1329.850448 50.683 -166.7422
1339.487093 51.403 -97.7612
1349.193569 53.260 -98.8579
1358.970381 54.795 -98.2598
1368.818041 56.124 -98.8647
1378.737061 56.990 -115.6953
1388.727958 57.383 -141.0952
1398.791253 57.788 -179.3447
1408.927471 58.412 129.4575
1419.137140 58.866 82.6289
1429.420793 58.702 46.8716
1439.778965 57.679 17.3130
1450.212197 56.547 60.0474
1460.721033 56.818 111.5991
1471.306019 57.925 103.7666
1481.967709 59.806 117.4927
1492.706658 61.418 109.9956
1503.523426 61.348 88.1899
1514.418576 59.734 74.3027
1525.392678 58.018 57.8174
1536.446302 57.312 -114.6289
1547.580025 57.235 -159.1655
1558.794428 56.951 -170.0698
1570.090095 56.641 -147.6079
1581.467615 56.151 -139.5747
1592.927581 55.717 -120.4458
1604.470591 55.459 -113.5537
1616.097246 55.393 -87.4976
1627.808153 56.027 -69.5112
1639.603922 56.778 -50.9365
1651.485168 57.284 -31.2236
1663.452510 57.318 -34.9370
1675.506573 57.333 -29.4067
1687.647984 58.338 38.8438
1699.877377 59.349 33.6074
1712.195390 59.126 19.2856
1724.602663 58.140 31.9810
1737.099845 56.860 33.8037
1749.687587 55.303 68.2271
1762.366544 55.743 171.8403
1775.137379 57.494 170.1689
1788.000756 58.108 160.4028
1800.957346 57.833 163.5122
1814.007826 57.822 -175.4834
1827.152874 58.442 -140.6509
1840.393177 58.881 -134.0244
1853.729425 59.852 -89.2046
1867.162312 60.757 -97.7778
1880.692540 60.013 -116.7275
