* Measurement data measured by REW V5.31
* Source: Scarlett 2i4 USB, MICROPHONE, R, volume: no control. Timing signal peak level -30.7 dBFS, measurement signal peak level -19.3 dBFS
* Format: 512k Log Swept Sine, 1 sweep at -18.0 dBFS using an acoustic timing reference
* Dated: Apr 16, 2024 3:45:03 PM
* REW Settings:
*  C-weighting compensation: Off
*  Target level: 75.0 dB
* Note: ; Delay -6.6701 ms (-2.288 m, -(7 ft 6.1 in)) using estimated IR delay relative to Acoustic reference played from SPEAKER L with no timing offset
* Measurement: screen-p3-rr
* Smoothing: 1/48 octave
* Frequency Step: 96 ppo
* Start Frequency: 10.093689 Hz
*
* Freq(Hz) SPL(dB) Phase(degrees)
10.093689 21.440 -12.7847
10.166832 21.955 -13.7494
10.240505 22.573 -14.9588
10.314712 23.207 -16.3625
10.389457 23.833 -17.9386
10.464743 24.408 -19.6935
10.540575 24.903 -21.6457
10.616956 25.345 -23.7390
10.693891 25.744 -25.9357
10.771383 26.104 -28.2264
10.849437 26.422 -30.7027
10.928057 26.698 -33.3646
11.007246 26.932 -36.1420
11.087009 27.124 -38.9978
11.167350 27.276 -42.0197
11.248273 27.385 -45.3323
11.329783 27.449 -48.8306
11.411883 27.465 -52.4374
11.494578 27.432 -56.2245
11.577873 27.349 -60.4712
11.661771 27.215 -65.0579
11.746277 27.026 -69.8601
11.831395 26.774 -74.9666
11.917130 26.458 -80.8703
12.003487 26.093 -87.4614
12.090469 25.698 -94.5758
12.178081 25.265 -102.4560
12.266329 24.782 -111.9017
12.355216 24.337 -122.7190
12.444747 24.034 -134.5039
12.534926 23.915 -147.6772
12.625760 23.955 -162.3882
12.717251 24.163 -177.1662
12.809406 24.565 169.1181
12.902228 25.194 155.9199
12.995723 25.968 143.8260
13.089895 26.764 133.3703
13.184750 27.511 124.1615
13.280292 28.240 115.3752
13.376526 28.927 107.3829
13.473458 29.534 100.3294
13.571093 30.055 93.4633
13.669434 30.497 86.7341
13.768489 30.858 80.5184
13.868261 31.136 74.7069
13.968756 31.329 68.7059
14.069979 31.436 62.8864
14.171936 31.456 57.5513
14.274632 31.389 52.0757
14.378072 31.229 46.5558
14.482261 30.971 41.4330
14.587206 30.616 36.4138
14.692910 30.155 31.2664
14.799381 29.575 26.3647
14.906624 28.873 21.8334
15.014643 28.041 17.2977
15.123446 27.050 12.9331
15.233036 25.887 9.1503
15.343421 24.544 5.8635
15.454606 22.954 2.9693
15.566596 21.031 1.0775
15.679398 18.795 1.3317
15.793018 16.409 3.8851
15.907460 13.909 10.6240
16.022732 11.382 28.6318
16.138840 9.535 59.3882
16.255788 9.112 88.9609
16.373585 9.765 107.0235
16.492234 10.618 120.9240
16.611744 11.327 134.0231
16.732119 12.155 146.7982
16.853367 13.366 158.7509
16.975494 15.011 169.3467
17.098505 16.806 176.5068
17.222408 18.505 179.5941
17.347209 20.109 -179.2596
17.472914 21.539 -179.8553
17.599530 22.725 177.8936
17.727063 23.693 174.7720
17.855521 24.463 171.2195
17.984909 25.036 166.8260
18.115235 25.420 162.1111
18.246506 25.626 157.4363
18.378727 25.651 152.1541
18.511907 25.495 147.0729
18.646052 25.157 142.0013
18.781169 24.630 136.7558
18.917265 23.901 132.1758
19.054347 22.966 127.8115
19.192423 21.817 124.1203
19.331499 20.420 121.9825
19.471583 18.886 121.4847
19.612682 17.345 123.5049
19.754804 15.923 129.5528
19.897956 15.126 136.5925
20.042144 15.155 143.4346
20.187378 15.685 146.3806
20.333664 16.501 144.2192
20.481010 17.463 138.8092
20.629424 18.370 130.3609
20.778913 19.238 119.9043
20.929486 20.095 108.8167
21.081150 20.941 96.8780
21.233912 21.759 85.7426
21.387782 22.540 74.7981
21.542767 23.248 65.0250
21.698874 23.862 56.0691
21.856113 24.366 48.1028
22.014492 24.744 41.3103
22.174018 24.998 35.3738
22.334700 25.130 30.8324
22.496546 25.157 27.3108
22.659566 25.115 25.3531
22.823766 25.043 24.7772
22.989157 25.031 25.6729
23.155745 25.121 27.9265
23.323542 25.392 30.7506
23.492554 25.838 33.9092
23.662790 26.410 36.3734
23.834261 27.059 38.2057
24.006973 27.684 39.1458
24.180938 28.253 39.4971
24.356163 28.718 39.6428
24.532658 29.084 39.8251
24.710431 29.371 40.6889
24.889493 29.644 42.3228
25.069853 29.994 45.1950
25.251519 30.520 48.7427
25.434502 31.306 52.6995
25.618811 32.317 55.6286
25.804456 33.509 57.3477
25.991445 34.742 57.0452
26.179790 35.947 55.2627
26.369500 37.040 51.9558
26.560584 37.998 47.6860
26.753053 38.793 42.5829
26.946917 39.421 37.1351
27.142185 39.876 31.3089
27.338869 40.161 25.7289
27.536977 40.282 20.2416
27.736522 40.257 15.5247
27.937512 40.113 11.5331
28.139959 39.895 8.7709
28.343872 39.688 7.2072
28.549264 39.566 6.9720
28.756143 39.629 7.4150
28.964522 39.888 7.9543
29.174411 40.320 7.8857
29.385821 40.817 6.6624
29.598763 41.305 4.3859
29.813248 41.695 1.1093
30.029287 41.946 -2.5999
30.246891 42.035 -6.6097
30.466073 41.961 -10.2274
30.686842 41.752 -13.1683
30.909212 41.450 -15.0482
31.133193 41.155 -15.5159
31.358797 40.968 -14.8173
31.586035 40.975 -13.2302
31.814921 41.207 -11.9056
32.045465 41.597 -11.4771
32.277680 42.053 -12.2953
32.511577 42.462 -14.4171
32.747169 42.758 -17.3776
32.984469 42.904 -20.9049
33.223488 42.881 -24.5571
33.464239 42.699 -27.8169
33.706735 42.380 -30.4260
33.950987 41.965 -31.9907
34.197010 41.529 -32.2329
34.444816 41.160 -31.2620
34.694417 40.932 -29.3777
34.945827 40.892 -27.2556
35.199059 41.001 -25.8022
35.454126 41.172 -25.4034
35.711041 41.303 -26.1168
35.969818 41.299 -27.7813
36.230470 41.079 -29.8015
36.493011 40.598 -31.4259
36.757455 39.852 -31.7740
37.023814 38.899 -29.5255
37.292104 37.940 -23.0332
37.562338 37.401 -12.2007
37.834530 37.542 -0.0460
38.108695 38.236 9.5813
38.384846 39.120 15.6500
38.662999 39.918 19.5250
38.943167 40.603 23.0446
39.225365 41.294 27.1194
39.509608 42.112 31.5942
39.795911 43.101 35.6248
40.084289 44.199 38.3897
40.374756 45.292 39.6995
40.667328 46.312 40.0616
40.962020 47.281 40.2096
41.258848 48.281 40.4966
41.557827 49.394 40.6510
41.858972 50.637 39.9307
42.162299 51.946 37.6068
42.467824 53.212 33.3647
42.775564 54.328 27.3403
43.085533 55.225 19.9422
43.397749 55.864 11.6845
43.712227 56.233 3.1085
44.028983 56.339 -5.2751
44.348036 56.209 -13.0055
44.669400 55.888 -19.6896
44.993093 55.444 -25.0674
45.319131 54.956 -29.1122
45.647532 54.491 -32.0865
45.978313 54.076 -34.4387
46.311491 53.692 -36.5468
46.647083 53.297 -38.5120
46.985107 52.865 -40.1707
47.325581 52.401 -41.2949
47.668521 51.938 -41.8375
48.013947 51.501 -42.0461
48.361876 51.074 -42.3075
48.712326 50.594 -42.8087
49.065315 49.978 -43.2930
49.420863 49.170 -43.0362
49.778987 48.174 -40.9601
50.139706 47.087 -35.8518
50.503039 46.124 -26.7969
50.869005 45.604 -13.7892
51.237623 45.854 2.0119
51.608912 47.037 18.1965
51.982891 48.973 31.1861
52.359580 51.249 38.4278
52.739000 53.494 39.9572
53.121168 55.497 37.1405
53.506106 57.168 31.3862
53.893833 58.478 23.7789
54.284370 59.424 15.1194
54.677737 60.018 6.0621
55.073955 60.284 -2.8198
55.473043 60.260 -11.0132
55.875024 60.000 -18.0953
56.279917 59.573 -23.8090
56.687745 59.056 -28.0963
57.098527 58.514 -31.1523
57.512287 57.981 -33.2844
57.929045 57.465 -34.6960
58.348822 56.973 -35.4425
58.771642 56.519 -35.6046
59.197525 56.110 -35.4161
59.626495 55.724 -35.0991
60.058573 55.316 -34.5320
60.493782 54.879 -33.1168
60.932145 54.492 -30.2135
61.373685 54.294 -25.9730
61.818424 54.356 -21.7072
62.266386 54.588 -18.7495
62.717593 54.829 -17.1932
63.172071 54.990 -16.1885
63.629842 55.086 -14.8680
64.090930 55.189 -13.0266
64.555359 55.341 -11.0767
65.023154 55.526 -9.4738
65.494339 55.702 -8.2670
65.968938 55.848 -7.2421
66.446976 55.964 -6.2456
66.928478 56.058 -5.2603
67.413469 56.129 -4.2878
67.901975 56.178 -3.2924
68.394021 56.207 -2.2655
68.889632 56.212 -1.2352
69.388835 56.181 -0.1537
69.891655 56.109 1.1410
70.398118 56.002 2.8316
70.908252 55.873 5.0311
71.422083 55.735 7.9432
71.939636 55.633 11.9619
72.460941 55.665 17.4138
72.986023 55.946 23.9060
73.514909 56.514 30.2631
74.047629 57.297 35.4613
74.584208 58.192 39.2754
75.124676 59.137 42.0409
75.669061 60.123 44.0632
76.217390 61.156 45.2669
76.769692 62.206 45.2396
77.325997 63.202 43.6768
77.886333 64.062 40.7043
78.450730 64.736 36.8495
79.019216 65.220 32.6891
79.591822 65.537 28.6599
80.168577 65.719 24.9758
80.749512 65.793 21.7675
81.334656 65.790 19.1367
81.924040 65.738 17.0681
82.517696 65.654 15.4287
83.115653 65.534 14.1638
83.717943 65.379 13.4772
84.324598 65.225 13.6639
84.935649 65.136 14.6974
85.551128 65.155 16.1326
86.171066 65.277 17.4619
86.795497 65.472 18.4556
87.424453 65.709 19.0970
88.057967 65.970 19.3913
88.696071 66.238 19.3318
89.338800 66.503 18.9261
89.986185 66.754 18.1790
90.638262 66.978 17.0593
91.295065 67.154 15.4858
91.956626 67.244 13.4116
92.622982 67.202 11.0662
93.294166 67.015 9.1251
93.970214 66.751 8.3667
94.651161 66.530 8.7673
95.337042 66.417 9.1356
96.027894 66.327 8.3551
96.723752 66.119 6.4956
97.424652 65.693 4.3555
98.130631 65.008 2.7902
98.841726 64.063 2.7559
99.557974 62.915 5.5673
100.279412 61.750 12.7322
101.006078 60.942 25.1152
101.738010 60.924 40.7873
102.475245 61.750 54.5131
103.217823 63.012 63.2760
103.965782 64.327 67.9200
104.719161 65.523 69.9289
105.477999 66.541 70.2970
106.242336 67.373 69.7935
107.012212 68.042 68.9842
107.787666 68.580 68.1702
108.568740 69.018 67.5828
109.355474 69.400 67.4332
110.147909 69.771 67.6763
110.946086 70.152 68.0236
111.750047 70.537 68.2509
112.559834 70.905 68.2889
113.375489 71.237 68.1743
114.197055 71.526 68.1348
115.024574 71.794 68.4514
115.858089 72.076 69.0796
116.697645 72.378 69.6651
117.543284 72.674 70.0159
118.395051 72.941 70.3263
119.252990 73.190 70.9383
120.117147 73.460 72.0450
120.987565 73.799 73.5732
121.864291 74.238 75.1512
122.747370 74.767 76.3398
123.636848 75.360 76.9567
124.532771 75.980 76.7990
125.435187 76.558 75.4748
126.344142 77.016 73.2570
127.259684 77.354 71.2065
128.181860 77.658 69.8585
129.110718 77.999 68.6850
130.046308 78.376 67.0762
130.988677 78.745 64.6709
131.937875 79.026 61.2068
132.893951 79.132 56.9274
133.856956 79.015 52.6357
134.826938 78.690 49.1872
135.803950 78.218 47.1223
136.788041 77.692 46.8280
137.779264 77.235 48.3997
138.777669 76.947 50.9081
139.783309 76.823 53.2680
140.796237 76.806 55.3798
141.816504 76.861 57.3987
142.844165 76.987 59.3615
143.879273 77.195 61.2364
144.921881 77.502 62.8278
145.972045 77.894 63.6217
147.029819 78.280 62.7240
148.095257 78.507 60.0512
149.168417 78.480 56.9525
150.249353 78.236 54.9532
151.338121 77.898 54.6790
152.434780 77.602 55.8940
153.539385 77.436 57.8787
154.651995 77.419 59.8691
155.772667 77.519 61.4022
156.901460 77.685 62.1842
158.038432 77.850 62.0101
159.183644 77.952 61.0425
160.337154 77.952 59.5752
161.499023 77.824 57.8302
162.669312 77.556 56.1981
163.848081 77.167 55.1447
165.035392 76.692 54.7856
166.231306 76.133 54.6790
167.435887 75.422 54.6996
168.649196 74.503 56.2537
169.871298 73.513 62.2272
171.102255 72.934 74.6077
172.342133 73.278 89.3324
173.590995 74.426 99.6606
174.848907 75.886 104.5943
176.115934 77.331 105.4401
177.392143 78.571 102.6222
178.677599 79.480 97.0391
179.972371 80.006 90.0172
181.276525 80.152 82.6104
182.590129 79.957 75.6760
183.913252 79.489 69.8106
185.245964 78.833 65.2758
186.588332 78.072 61.9543
187.940428 77.246 59.1313
189.302322 76.283 55.7833
190.674085 75.010 52.4405
192.055788 73.363 52.7522
193.447503 71.814 64.4744
194.849303 71.525 86.0589
196.261262 72.491 94.4031
197.683452 73.427 89.6970
199.115948 73.680 79.7020
200.558824 73.109 67.8557
202.012156 71.669 55.5265
203.476019 69.306 44.4335
204.950490 66.281 41.5558
206.435646 64.450 161.5556
207.931564 65.605 175.5988
209.438322 67.424 169.0515
210.955998 68.620 162.1314
212.484672 69.230 157.1537
214.024424 69.400 153.0732
215.575333 69.117 148.9240
217.137481 68.316 146.1794
218.710948 67.071 148.1240
220.295818 65.691 156.2219
221.892172 64.730 170.5825
223.500094 65.061 -166.1001
225.119668 66.855 -143.3158
226.750978 68.930 -136.4696
228.394109 70.305 -141.3236
230.049147 70.665 -149.0930
231.716178 70.327 -149.4161
233.395289 70.264 -137.3754
235.086567 71.026 -127.3292
236.790102 72.201 -122.7427
238.505980 73.479 -119.8521
240.234293 74.676 -120.2389
241.975130 75.630 -123.2885
243.728581 76.306 -127.3755
245.494739 76.717 -132.0701
247.273695 76.820 -137.7253
249.065542 76.532 -143.6348
250.870374 75.855 -147.8300
252.688284 74.916 -149.1042
254.519367 73.870 -147.8603
256.363720 72.807 -144.8121
258.221437 71.819 -138.9919
260.092616 71.126 -129.6177
261.977354 70.815 -121.4600
263.875750 70.490 -118.6915
265.787903 69.989 -112.4450
267.713911 70.419 -87.5130
269.653877 72.495 -62.9850
271.607900 74.988 -57.1134
273.576083 76.978 -61.7824
275.558528 78.240 -70.9066
277.555338 78.854 -80.2841
279.566619 79.061 -87.7347
281.592474 79.029 -94.6520
283.633009 78.662 -102.9677
285.688331 77.740 -111.2298
287.758546 76.244 -114.3835
289.843763 74.629 -108.0453
291.944090 73.658 -97.2695
294.059638 73.460 -91.3756
296.190515 73.351 -91.9214
298.336833 72.912 -92.3004
300.498705 72.426 -87.2119
302.676243 72.282 -82.1862
304.869559 72.269 -82.4028
307.078770 72.000 -85.5744
309.303989 71.234 -90.2220
311.545334 69.878 -92.4300
313.802919 68.220 -85.9007
316.076865 66.827 -77.1257
318.367288 65.550 -76.4083
320.674309 63.818 -73.2613
322.998047 62.186 -52.3426
325.338624 62.728 -22.1974
327.696162 65.678 29.2915
330.070783 68.867 38.7083
332.462612 71.214 25.9669
334.871773 72.621 9.0574
337.298392 73.176 -9.3148
339.742595 72.949 -28.5616
342.204510 72.064 -47.5904
344.684265 70.903 -66.7094
347.181989 69.913 -92.4432
349.697813 69.048 -129.0546
352.231868 68.119 -170.0533
354.784285 67.129 155.0727
357.355198 65.927 131.2407
359.944741 64.611 122.7651
362.553049 64.074 129.6697
365.180258 64.655 135.0884
367.826505 65.258 130.9463
370.491927 65.102 124.1722
373.176665 64.223 122.6121
375.880856 63.716 143.2774
378.604644 65.055 174.8591
381.348169 67.228 -178.0999
384.111575 68.988 178.1551
386.895006 70.159 172.4511
389.698607 70.788 165.6674
392.522524 70.753 157.1192
395.366904 69.914 149.8764
398.231895 68.489 151.0295
401.117648 67.545 169.8500
404.024312 68.216 -170.8584
406.952038 69.669 -166.8857
409.900981 70.804 -171.3176
412.871292 71.206 -179.7775
415.863128 70.842 172.1809
418.876643 69.839 166.1439
421.911996 68.299 164.8011
424.969344 66.589 172.3631
428.048847 65.212 -179.4867
431.150666 64.171 -172.9970
434.274961 63.263 -166.3000
437.421897 62.517 -156.2679
440.591636 62.064 -147.3739
443.784345 61.722 -141.1805
447.000189 61.367 -135.1171
450.239337 60.853 -131.9032
453.501956 60.162 -124.8862
456.788219 59.887 -110.0897
460.098294 60.026 -105.1683
463.432356 59.712 -107.9931
466.790578 58.871 -103.8628
470.173135 58.555 -89.5070
473.580203 59.177 -85.1653
477.011961 59.846 -93.3957
480.468586 59.927 -109.9904
483.950259 59.199 -132.4452
487.457163 57.984 -156.0759
490.989478 57.174 179.5352
494.547390 57.034 154.7338
498.131084 57.272 137.8315
501.740748 57.674 126.5024
505.376568 57.742 116.9166
509.038735 57.579 116.7139
512.727439 58.196 130.3583
516.442874 59.531 136.9806
520.185232 60.266 130.3884
523.954708 59.832 123.9863
527.751500 59.011 136.6425
531.575805 59.506 163.9590
535.427822 60.993 172.4793
539.307753 62.178 171.3681
543.215800 62.987 172.3060
547.152165 63.746 174.4202
551.117055 64.210 171.5318
555.110677 64.053 167.5540
559.133237 63.381 166.8151
563.184947 62.467 169.3512
567.266018 61.777 177.8480
571.376661 62.101 -168.5012
575.517092 63.372 -159.9263
579.687526 64.406 -165.4168
583.888181 64.474 -176.9378
588.119275 63.873 175.1346
592.381030 63.434 169.5366
596.673667 63.507 158.1483
600.997410 63.724 139.0619
605.352485 63.534 113.1330
609.739119 62.616 87.5403
614.157540 61.438 70.5511
618.607979 60.787 59.7370
623.090667 60.577 50.3675
627.605839 60.643 46.2918
632.153730 61.257 45.3568
636.734576 62.017 38.0584
641.348617 62.118 22.6423
645.996094 61.084 2.2886
650.677248 59.112 -19.4658
655.392323 58.009 163.5504
660.141566 58.438 132.1396
664.925224 58.553 118.5029
669.743546 58.604 133.0619
674.596784 58.934 139.0376
679.485191 59.212 143.4407
684.409020 60.567 163.3196
689.368530 62.609 168.6569
694.363979 64.118 161.1232
699.395626 64.980 150.9498
704.463736 65.312 138.1816
709.568570 65.108 121.6255
714.710396 64.221 99.3066
719.889483 62.373 70.6302
725.106099 59.361 36.4635
730.360516 55.591 -4.3000
735.653010 52.984 -36.9562
740.983855 53.294 -24.0720
746.353329 54.602 -29.5652
751.761713 54.905 -54.3472
757.209288 54.483 -82.2386
762.696339 54.600 90.4316
768.223151 55.341 64.8849
773.790013 56.754 60.5634
779.397214 59.253 65.9697
785.045047 62.039 69.0162
790.733808 63.938 57.8676
796.463791 64.467 39.7461
802.235296 63.792 21.7833
808.048623 62.346 4.1644
813.904077 60.850 -19.0528
819.801961 59.962 150.3521
825.742584 59.506 118.9560
831.726255 59.077 99.6152
837.753287 58.128 82.8256
843.823992 56.349 70.4496
849.938689 54.415 58.0655
856.097695 53.349 23.5760
862.301332 53.282 -56.0319
868.549922 53.369 -106.7103
874.843793 53.169 -120.9991
881.183272 53.404 -108.6224
887.568689 54.362 -119.0245
894.000378 55.358 -144.8917
900.478673 56.444 171.3997
907.003913 57.956 87.3151
913.576437 59.372 5.3801
920.196588 59.962 -61.0975
926.864712 59.591 -137.0581
933.581156 58.424 147.9760
940.346270 56.396 98.9836
947.160407 53.565 71.3494
954.023921 50.477 58.6409
960.937172 48.533 47.1808
967.900519 48.867 15.0448
974.914325 50.943 -19.3284
981.978956 53.175 -42.8555
989.094780 54.899 -55.8787
996.262169 56.678 -59.0071
1003.481495 58.575 -61.0317
1010.753136 60.266 -66.7675
1018.077470 61.182 -80.7500
1025.454879 61.370 -99.4688
1032.885748 60.891 -131.9119
1040.370463 59.873 141.7938
1047.909417 59.860 71.8110
1055.503000 61.321 49.6730
1063.151610 62.651 31.9652
1070.855645 62.799 12.6619
1078.615506 61.703 -6.2585
1086.431599 59.695 -26.5590
1094.304330 57.276 -36.9279
1102.234110 56.003 77.9807
1110.221353 56.303 37.0461
1118.266475 56.429 -31.5245
1126.369895 55.756 -83.9490
1134.532035 54.572 -105.3855
1142.753322 53.413 -106.0881
1151.034184 52.794 -100.1299
1159.375052 53.189 -81.7065
1167.776361 55.111 -34.1489
1176.238550 57.230 -24.3859
1184.762060 58.601 -29.7732
1193.347334 59.104 -40.2502
1201.994821 58.397 -55.2125
1210.704971 56.264 -50.8553
1219.478238 53.385 46.6292
1228.315080 50.720 52.6925
1237.215957 49.242 53.6614
1246.181334 50.148 22.7090
1255.211678 52.810 -78.5122
1264.307459 55.105 -98.8047
1273.469152 56.341 -105.1782
1282.697235 57.045 -100.8433
1291.992188 57.766 -89.4692
1301.354495 58.445 -79.1602
1310.784647 58.624 -69.2715
1320.283132 58.487 -56.7104
1329.850448 57.794 -45.3206
1339.487093 56.664 -16.7170
1349.193569 56.055 8.0035
1358.970381 55.546 23.3312
1368.818041 54.817 47.2469
1378.737061 54.679 82.3052
1388.727958 55.906 131.4650
1398.791253 57.831 159.5880
1408.927471 59.002 169.1854
1419.137140 59.143 -179.7456
1429.420793 58.607 -163.6447
1439.778965 58.245 -133.0200
1450.212197 58.922 -83.2339
1460.721033 60.131 -64.7872
1471.306019 61.200 -52.3872
1481.967709 61.913 -42.5083
1492.706658 61.609 -29.5239
1503.523426 60.783 20.3285
1514.418576 60.482 45.8344
1525.392678 60.502 69.8849
1536.446302 60.680 90.5096
1547.580025 60.104 105.9999
1558.794428 59.466 148.2657
1570.090095 59.921 -176.2147
1581.467615 60.580 -155.8353
1592.927581 61.305 -129.9243
1604.470591 62.115 -109.2136
1616.097246 62.056 -94.0833
1627.808153 61.587 -63.5098
1639.603922 61.528 -36.6592
1651.485168 60.888 -19.6536
1663.452510 59.755 8.3068
1675.506573 59.524 53.6422
1687.647984 60.079 84.8473
1699.877377 60.071 106.0562
1712.195390 59.974 139.2424
1724.602663 60.702 174.0232
1737.099845 61.554 -161.5161
1749.687587 61.875 -140.7327
1762.366544 61.483 -119.5781
1775.137379 60.685 -83.5894
1788.000756 60.428 -46.8506
1800.957346 60.619 -16.8815
1814.007826 60.797 10.3933
1827.152874 60.739 36.4590
1840.393177 60.750 76.7233
1853.729425 61.229 116.1168
1867.162312 61.337 139.5083
1880.692540 61.071 168.6307
1894.320813 61.179 -154.8742
1908.047843 61.668 -123.9339
1921.874344 62.086 -96.8167
1935.801038 62.116 -72.2770
1949.828650 61.535 -46.6212
1963.957912 60.667 -11.8811
1978.189561 60.114 23.0817
1992.524338 59.824 53.8760
2006.962991 60.324 117.3917
