* Measurement data measured by REW V5.31
* Source: Scarlett 2i4 USB, MICROPHONE, R, volume: no control. Timing signal peak level -31.1 dBFS, measurement signal peak level -26.1 dBFS
* Format: 512k Log Swept Sine, 1 sweep at -18.0 dBFS using an acoustic timing reference
* Dated: Apr 16, 2024 10:05:29 AM
* REW Settings:
*  C-weighting compensation: Off
*  Target level: 75.0 dB
* Note: ; Delay -0.0121 ms (-4.1 mm, -0.16 in) using estimated IR delay relative to Acoustic reference played from SPEAKER L with no timing offset
* Measurement: screen-p1-l
* Smoothing: 1/48 octave
* Frequency Step: 96 ppo
* Start Frequency: 10.093689 Hz
*
* Freq(Hz) SPL(dB) Phase(degrees)
10.093689 20.021 78.9786
10.166832 20.329 77.6784
10.240505 20.700 76.0839
10.314712 21.081 74.2944
10.389457 21.456 72.3803
10.464743 21.795 70.3581
10.540575 22.074 68.0978
10.616956 22.314 65.6789
10.693891 22.521 63.2059
10.771383 22.695 60.7649
10.849437 22.836 58.2370
10.928057 22.942 55.5672
11.007246 23.018 52.8643
11.087009 23.067 50.2381
11.167350 23.089 47.6850
11.248273 23.082 45.0578
11.329783 23.049 42.4326
11.411883 22.998 39.9118
11.494578 22.930 37.5570
11.577873 22.839 35.2537
11.661771 22.735 33.0246
11.746277 22.627 30.9309
11.831395 22.519 29.0416
11.917130 22.407 27.3352
12.003487 22.300 25.7785
12.090469 22.214 24.3540
12.178081 22.156 23.1029
12.266329 22.121 22.0825
12.355216 22.118 21.1876
12.444747 22.157 20.3048
12.534926 22.245 19.4773
12.625760 22.378 18.7575
12.717251 22.552 17.9997
12.809406 22.764 17.0733
12.902228 23.019 16.0792
12.995723 23.309 15.0126
13.089895 23.622 13.7868
13.184750 23.951 12.3580
13.280292 24.299 10.8114
13.376526 24.658 9.1501
13.473458 25.017 7.3592
13.571093 25.375 5.4392
13.669434 25.733 3.4345
13.768489 26.084 1.3804
13.868261 26.425 -0.7241
13.968756 26.756 -2.8908
14.069979 27.076 -5.0631
14.171936 27.383 -7.2068
14.274632 27.677 -9.3731
14.378072 27.956 -11.5192
14.482261 28.220 -13.5881
14.587206 28.468 -15.6254
14.692910 28.700 -17.6211
14.799381 28.916 -19.5062
14.906624 29.116 -21.2947
15.014643 29.300 -23.0120
15.123446 29.470 -24.5869
15.233036 29.627 -26.0010
15.343421 29.772 -27.2947
15.454606 29.911 -28.4227
15.566596 30.047 -29.3518
15.679398 30.182 -30.1119
15.793018 30.325 -30.7249
15.907460 30.482 -31.1740
16.022732 30.654 -31.4682
16.138840 30.847 -31.7215
16.255788 31.067 -31.9434
16.373585 31.309 -32.1308
16.492234 31.568 -32.4396
16.611744 31.846 -32.8742
16.732119 32.133 -33.4198
16.853367 32.415 -34.1591
16.975494 32.690 -35.1021
17.098505 32.948 -36.1784
17.222408 33.175 -37.3603
17.347209 33.370 -38.6991
17.472914 33.529 -40.0242
17.599530 33.645 -41.2802
17.727063 33.721 -42.5103
17.855521 33.765 -43.4840
17.984909 33.776 -44.2026
18.115235 33.773 -44.6481
18.246506 33.779 -44.6929
18.378727 33.798 -44.3463
18.511907 33.863 -43.7692
18.646052 33.992 -42.9256
18.781169 34.185 -41.9906
18.917265 34.446 -41.2907
19.054347 34.771 -40.7415
19.192423 35.127 -40.5989
19.331499 35.500 -40.9212
19.471583 35.869 -41.5885
19.612682 36.202 -42.6072
19.754804 36.497 -43.9294
19.897956 36.742 -45.2571
20.042144 36.931 -46.6730
20.187378 37.080 -47.9062
20.333664 37.193 -48.8216
20.481010 37.295 -49.4528
20.629424 37.421 -49.6298
20.778913 37.585 -49.4348
20.929486 37.826 -49.1181
21.081150 38.152 -48.6333
21.233912 38.553 -48.4904
21.387782 39.026 -48.6804
21.542767 39.527 -49.3913
21.698874 40.029 -50.7281
21.856113 40.504 -52.4869
22.014492 40.919 -54.6948
22.174018 41.268 -57.1378
22.334700 41.536 -59.5922
22.496546 41.728 -62.0323
22.659566 41.853 -64.0528
22.823766 41.928 -65.7364
22.989157 41.991 -66.7643
23.155745 42.067 -67.2172
23.323542 42.208 -67.1716
23.492554 42.430 -66.7082
23.662790 42.749 -66.3022
23.834261 43.151 -65.9804
24.006973 43.598 -66.1383
24.180938 44.063 -66.6556
24.356163 44.502 -67.5209
24.532658 44.905 -68.5625
24.710431 45.265 -69.4834
24.889493 45.605 -70.1973
25.069853 45.959 -70.4072
25.251519 46.376 -70.3172
25.434502 46.902 -69.8737
25.618811 47.554 -69.7564
25.804456 48.332 -70.0297
25.991445 49.177 -71.4080
26.179790 50.050 -73.7092
26.369500 50.879 -77.2016
26.560584 51.629 -81.5397
26.753053 52.261 -86.7076
26.946917 52.756 -92.2891
27.142185 53.098 -98.3325
27.338869 53.282 -104.2445
27.536977 53.304 -110.1642
27.736522 53.172 -115.4083
27.937512 52.906 -119.9815
28.139959 52.540 -123.3167
28.343872 52.163 -125.3055
28.549264 51.855 -125.6841
28.756143 51.756 -124.9947
28.964522 51.908 -123.9343
29.174411 52.314 -123.4027
29.385821 52.851 -124.2710
29.598763 53.427 -126.4784
29.813248 53.929 -130.0428
30.029287 54.305 -134.3580
30.246891 54.526 -139.2796
30.466073 54.581 -144.1648
30.686842 54.486 -148.7313
30.909212 54.264 -152.6992
31.133193 53.971 -155.6161
31.358797 53.675 -157.5193
31.586035 53.446 -158.3289
31.814921 53.354 -158.5994
32.045465 53.403 -158.8449
32.277680 53.563 -159.4965
32.511577 53.757 -160.9318
32.747169 53.916 -162.9535
32.984469 53.996 -165.3814
33.223488 53.973 -167.8314
33.464239 53.861 -169.8297
33.706735 53.699 -171.1532
33.950987 53.544 -171.5560
34.197010 53.476 -171.1367
34.444816 53.546 -170.3358
34.694417 53.763 -169.6199
34.945827 54.096 -169.4983
35.199059 54.476 -170.2640
35.454126 54.845 -171.8356
35.711041 55.161 -174.0573
35.969818 55.400 -176.7175
36.230470 55.556 -179.5394
36.493011 55.638 177.6475
36.757455 55.657 174.9448
37.023814 55.627 172.4180
37.292104 55.559 170.0810
37.562338 55.455 167.9167
37.834530 55.313 165.9395
38.108695 55.128 164.2119
38.384846 54.898 162.8516
38.662999 54.632 162.0398
38.943167 54.358 161.9531
39.225365 54.118 162.6252
39.509608 53.950 163.9096
39.795911 53.870 165.5269
40.084289 53.862 167.2163
40.374756 53.887 168.9624
40.667328 53.925 171.1983
40.962020 54.040 174.6859
41.258848 54.403 179.8695
41.557827 55.195 -173.9939
41.858972 56.442 -168.9339
42.162299 57.975 -166.7733
42.467824 59.555 -167.9519
42.775564 61.007 -171.9193
43.085533 62.248 -177.8697
43.397749 63.252 174.9208
43.712227 64.022 167.0312
44.028983 64.576 158.8973
44.348036 64.941 150.8323
44.669400 65.144 143.0519
44.993093 65.217 135.6902
45.319131 65.187 128.8140
45.647532 65.076 122.4473
45.978313 64.901 116.6026
46.311491 64.675 111.3068
46.647083 64.416 106.6024
46.985107 64.148 102.5162
47.325581 63.899 99.0072
47.668521 63.693 95.9370
48.013947 63.542 93.1057
48.361876 63.437 90.3494
48.712326 63.363 87.6242
49.065315 63.315 85.0017
49.420863 63.308 82.5674
49.778987 63.368 80.2914
50.139706 63.521 77.9763
50.503039 63.769 75.3446
50.869005 64.094 72.1833
51.237623 64.478 68.4058
51.608912 64.915 63.9673
51.982891 65.407 58.7211
52.359580 65.944 52.3681
52.739000 66.484 44.5695
53.121168 66.960 35.1261
53.506106 67.295 24.0739
53.893833 67.419 11.6225
54.284370 67.281 -1.8948
54.677737 66.848 -16.0511
55.073955 66.101 -30.3677
55.473043 65.043 -44.3342
55.875024 63.699 -57.4512
56.279917 62.130 -69.3145
56.687745 60.435 -79.7704
57.098527 58.749 -89.2423
57.512287 57.184 -98.7574
57.929045 55.788 -109.4376
58.348822 54.553 -121.9760
58.771642 53.492 -136.5677
59.197525 52.708 -153.0143
59.626495 52.355 -170.8340
60.058573 52.511 170.7028
60.493782 53.080 152.3120
60.932145 53.852 134.4875
61.373685 54.634 117.4321
61.818424 55.303 101.2874
62.266386 55.804 86.2268
62.717593 56.131 72.3216
63.172071 56.321 59.6862
63.629842 56.432 48.3615
64.090930 56.531 38.1689
64.555359 56.673 28.7762
65.023154 56.880 19.7676
65.494339 57.146 10.8206
65.968938 57.445 1.8019
66.446976 57.761 -7.2259
66.928478 58.094 -16.0941
67.413469 58.469 -24.6848
67.901975 58.908 -33.0470
68.394021 59.418 -41.3708
68.889632 59.981 -49.7991
69.388835 60.575 -58.2962
69.891655 61.202 -66.7042
70.398118 61.893 -74.9923
70.908252 62.666 -83.4412
71.422083 63.487 -92.5746
71.939636 64.274 -102.6847
72.460941 64.937 -113.6591
72.986023 65.422 -125.0559
73.514909 65.719 -136.2600
74.047629 65.864 -146.7654
74.584208 65.926 -156.2483
75.124676 65.990 -164.7395
75.669061 66.120 -172.6760
76.217390 66.324 179.1750
76.769692 66.534 170.1606
77.325997 66.646 160.0103
77.886333 66.557 148.9302
78.450730 66.196 137.2896
79.019216 65.508 125.4213
79.591822 64.427 113.6604
80.168577 62.853 102.4658
80.749512 60.662 93.1190
81.334656 57.902 90.5452
81.924040 55.924 128.4526
82.517696 57.206 -169.2406
83.115653 60.099 -165.7305
83.717943 62.642 -172.3162
84.324598 64.582 178.2759
84.935649 65.989 167.8093
85.551128 66.955 157.2075
86.171066 67.573 147.1477
86.795497 67.941 138.1208
87.424453 68.170 130.3427
88.057967 68.359 123.6340
88.696071 68.569 117.5233
89.338800 68.817 111.5891
89.986185 69.109 105.6464
90.638262 69.464 99.4954
91.295065 69.882 92.5930
91.956626 70.298 84.1860
92.622982 70.579 73.8608
93.294166 70.579 61.9257
93.970214 70.193 49.3617
94.651161 69.392 37.5287
95.337042 68.245 27.7412
96.027894 66.903 20.6893
96.723752 65.546 16.0443
97.424652 64.306 12.8337
98.130631 63.227 10.0984
98.841726 62.275 7.0898
99.557974 61.360 3.5168
100.279412 60.391 -0.2537
101.006078 59.338 -3.6078
101.738010 58.230 -6.2610
102.475245 57.116 -8.4127
103.217823 56.023 -10.6056
103.965782 54.923 -13.5839
104.719161 53.714 -17.7900
105.477999 52.261 -22.7335
106.242336 50.481 -27.0835
107.012212 48.437 -29.3542
107.787666 46.447 -29.4294
108.568740 45.151 -32.5283
109.355474 45.014 -47.1924
110.147909 45.844 -74.6058
110.946086 47.278 -105.2908
111.750047 49.027 -129.3386
112.559834 50.854 -145.8323
113.375489 52.620 -157.3143
114.197055 54.300 -165.7020
115.024574 55.920 -172.4000
115.858089 57.444 -179.0607
116.697645 58.755 173.2592
117.543284 59.756 164.8867
118.395051 60.435 156.9026
119.252990 60.866 150.4094
120.117147 61.210 146.3470
120.987565 61.699 144.9399
121.864291 62.485 144.5398
122.747370 63.491 142.8582
123.636848 64.536 139.1572
124.532771 65.485 133.8502
125.435187 66.276 127.5317
126.344142 66.905 120.8787
127.259684 67.423 114.5284
128.181860 67.920 108.7501
129.110718 68.462 103.0051
130.046308 69.014 96.1908
130.988677 69.453 87.8669
131.937875 69.688 78.7518
132.893951 69.737 69.8582
133.856956 69.685 61.4240
134.826938 69.603 52.9084
135.803950 69.497 43.4160
136.788041 69.267 31.6954
137.779264 68.696 17.2468
138.777669 67.566 1.1508
139.783309 65.771 -15.2922
140.796237 63.297 -32.4023
141.816504 60.270 -54.3113
142.844165 57.678 -121.2356
143.879273 57.688 144.5746
144.921881 59.468 120.7036
145.972045 61.065 105.6919
147.029819 62.085 94.3309
148.095257 62.663 86.1426
149.168417 63.020 80.7794
150.249353 63.341 77.4000
151.338121 63.764 75.3444
152.434780 64.357 73.3744
153.539385 65.002 69.1411
154.651995 65.423 61.7572
155.772667 65.395 52.8732
156.901460 64.873 45.3126
158.038432 64.015 41.5231
159.183644 63.107 41.7410
160.337154 62.433 45.2635
161.499023 62.267 51.3879
162.669312 62.735 57.1482
163.848081 63.688 60.4139
165.035392 64.798 59.2723
166.231306 65.681 53.0701
167.435887 66.087 43.9916
168.649196 65.943 34.6138
169.871298 65.307 27.1941
171.102255 64.355 23.5066
172.342133 63.366 24.1912
173.590995 62.635 27.8401
174.848907 62.272 31.5350
176.115934 62.258 35.4320
177.392143 62.754 41.8491
178.677599 63.799 46.6486
179.972371 64.922 44.3029
181.276525 65.667 37.1735
182.590129 65.985 29.8967
183.913252 66.135 24.9202
185.245964 66.396 20.9783
186.588332 66.765 14.7682
187.940428 67.013 5.2428
189.302322 66.947 -6.7495
190.674085 66.450 -20.7650
192.055788 65.405 -36.3181
193.447503 63.743 -52.1168
194.849303 61.583 -67.8083
196.261262 59.523 -88.5225
197.683452 58.919 -127.7263
199.115948 60.360 -179.7488
200.558824 62.538 143.2524
202.012156 64.437 117.5762
203.476019 65.764 97.1152
204.950490 66.484 79.9119
206.435646 66.677 66.0623
207.931564 66.633 57.7205
209.438322 66.880 55.6772
210.955998 67.481 51.3257
212.484672 67.755 40.2334
214.024424 67.328 30.1665
215.575333 66.697 29.6331
217.137481 66.874 37.0674
218.710948 67.972 39.0649
220.295818 69.110 31.4795
221.892172 69.666 18.3674
223.500094 69.427 3.9277
225.119668 68.413 -7.6016
226.750978 66.899 -12.0110
228.394109 65.343 -11.4851
230.049147 64.007 -9.7773
231.716178 63.318 1.2375
233.395289 64.069 19.3394
235.086567 65.672 22.9980
236.790102 66.902 13.7151
238.505980 67.193 -1.0117
240.234293 66.398 -14.7983
241.975130 64.756 -18.4180
243.728581 63.277 -3.5940
245.494739 63.196 13.0593
247.273695 64.032 16.3125
249.065542 64.911 14.9509
250.870374 65.981 17.6536
252.688284 67.480 20.5015
254.519367 68.992 15.7373
256.363720 70.054 5.1663
258.221437 70.498 -7.4624
260.092616 70.342 -19.4414
261.977354 69.763 -27.9363
263.875750 69.145 -31.6140
265.787903 68.863 -33.6711
267.713911 68.955 -37.4602
269.653877 69.156 -45.1292
271.607900 69.102 -57.0718
273.576083 68.546 -71.7361
275.558528 67.358 -88.9590
277.555338 65.391 -108.4502
279.566619 62.730 -116.3896
281.592474 60.473 -32.2881
283.633009 60.262 -24.9702
285.688331 62.222 29.5071
287.758546 64.869 30.4163
289.843763 66.999 13.9348
291.944090 68.388 -3.0105
294.059638 69.078 -19.4231
296.190515 69.139 -34.4626
298.336833 68.675 -47.3115
300.498705 67.740 -58.2017
302.676243 66.357 -65.1150
304.869559 64.971 -60.2395
307.078770 64.778 -44.1528
309.303989 66.095 -35.1235
311.545334 67.864 -37.0171
313.802919 69.396 -45.5059
316.076865 70.533 -57.1523
318.367288 71.250 -70.9497
320.674309 71.449 -86.8464
322.998047 71.019 -103.0830
325.338624 70.007 -116.3779
327.696162 68.710 -123.7490
330.070783 67.631 -126.3923
332.462612 66.921 -131.8413
334.871773 66.299 -138.1541
337.298392 65.969 -139.0337
339.742595 66.319 -140.2722
342.204510 66.939 -149.4036
344.684265 67.264 -163.1785
347.181989 67.191 -177.3665
349.697813 66.830 168.8943
352.231868 66.295 156.1467
354.784285 65.834 146.4104
357.355198 65.723 137.1321
359.944741 65.736 123.3855
362.553049 65.419 107.3162
365.180258 64.714 94.1245
367.826505 63.991 85.5876
370.491927 63.563 77.9421
373.176665 63.284 68.4717
375.880856 62.922 59.2910
378.604644 62.462 51.8179
381.348169 62.070 46.8284
384.111575 62.129 46.0518
386.895006 63.007 48.7148
389.698607 64.151 41.7727
392.522524 64.718 27.0569
395.366904 64.591 13.6165
398.231895 64.049 2.8157
401.117648 63.232 -6.5449
404.024312 62.550 -3.2205
406.952038 62.921 7.7117
409.900981 63.952 2.4536
412.871292 64.683 -10.2100
415.863128 64.746 -25.1714
418.876643 64.130 -37.6794
421.911996 63.493 -35.0916
424.969344 63.624 -33.2068
428.048847 63.842 -45.4092
431.150666 63.931 -52.9690
434.274961 64.786 -51.9258
437.421897 65.999 -64.6687
440.591636 66.367 -89.6956
443.784345 65.523 -115.6565
447.000189 63.749 -135.7673
450.239337 61.943 -142.6111
453.501956 61.457 -147.9995
456.788219 61.788 -171.8640
460.098294 61.664 156.5015
463.432356 60.853 126.1216
466.790578 59.757 101.5068
470.173135 58.970 82.7339
473.580203 58.647 63.0608
477.011961 58.590 43.9739
480.468586 59.492 66.2197
483.950259 61.472 89.5117
487.457163 63.193 67.9717
490.989478 64.053 44.0598
494.547390 64.194 25.7871
498.131084 64.398 18.3906
501.740748 65.040 7.9182
505.376568 65.478 -9.5244
509.038735 65.250 -28.8296
512.727439 64.442 -44.6982
516.442874 63.360 -61.2227
520.185232 61.681 -81.4460
523.954708 59.257 -90.0027
527.751500 57.785 -77.2549
531.575805 58.624 23.6770
535.427822 59.777 6.7397
539.307753 60.077 -17.0696
543.215800 60.337 -26.6548
547.152165 62.251 -15.0708
551.117055 65.004 -14.3149
555.110677 66.849 -37.4827
559.133237 67.458 -65.7317
563.184947 67.477 -90.1282
567.266018 67.416 -116.0718
571.376661 66.849 -148.7998
575.517092 65.171 176.3174
579.687526 62.334 151.6672
583.888181 59.165 137.7708
588.119275 57.150 88.8105
592.381030 56.985 -19.4871
596.673667 57.983 -86.9685
600.997410 59.113 -129.6760
605.352485 60.064 -164.2192
609.739119 60.605 162.7339
614.157540 60.566 131.3943
618.607979 60.712 122.2830
623.090667 62.450 149.1699
627.605839 64.610 126.2100
632.153730 65.544 88.0588
636.734576 64.920 50.4451
641.348617 63.232 37.9072
645.996094 61.469 61.3120
650.677248 60.268 54.1711
655.392323 61.332 102.6763
660.141566 64.114 116.3450
664.925224 65.957 90.7388
669.743546 66.467 64.1694
674.596784 66.417 44.0457
679.485191 65.986 25.6370
684.409020 65.707 24.0522
689.368530 66.556 22.8987
694.363979 67.550 2.2690
699.395626 67.804 -26.3572
704.463736 67.085 -60.5276
709.568570 65.525 -102.8511
714.710396 63.919 166.4675
719.889483 63.374 59.7451
725.106099 63.951 18.4326
730.360516 64.424 -16.6475
735.653010 63.941 -50.2188
740.983855 63.113 -76.7979
746.353329 63.221 -105.1250
751.761713 63.782 -149.2461
757.209288 64.025 165.9736
762.696339 64.584 134.4312
768.223151 65.827 111.0195
773.790013 67.230 89.4692
779.397214 67.891 61.1729
785.045047 67.399 35.3521
790.733808 66.450 31.7739
796.463791 66.318 34.9771
802.235296 67.051 25.7163
808.048623 68.418 17.0981
813.904077 69.581 -3.2729
819.801961 69.726 -30.7949
825.742584 68.741 -56.5718
831.726255 67.327 -74.7339
837.753287 66.519 -97.2617
843.823992 66.264 -130.2446
849.938689 66.463 -167.7607
856.097695 67.086 153.7119
862.301332 67.669 119.4766
868.549922 68.592 96.1382
874.843793 70.077 76.1714
881.183272 71.339 52.1729
887.568689 71.845 26.2837
894.000378 71.624 3.6079
900.478673 71.149 -16.2271
907.003913 70.456 -38.9312
913.576437 69.410 -63.0044
920.196588 68.344 -91.2246
926.864712 67.437 -134.5195
933.581156 66.189 160.5405
940.346270 65.219 106.3862
947.160407 66.447 81.6387
954.023921 68.641 58.7598
960.937172 70.002 31.0566
967.900519 70.341 5.0674
974.914325 69.912 -19.1772
981.978956 68.557 -42.7544
989.094780 66.279 -61.2344
996.262169 64.393 -49.4570
1003.481495 65.693 31.8022
1010.753136 68.252 18.7456
1018.077470 69.762 -6.3003
1025.454879 70.018 -30.3750
1032.885748 69.365 -49.7793
1040.370463 68.097 -65.0435
1047.909417 66.667 -73.9438
1055.503000 65.871 -75.8335
1063.151610 66.142 -66.7500
1070.855645 66.462 -84.9731
1078.615506 65.753 -117.1328
1086.431599 64.635 -161.5840
1094.304330 64.917 95.7817
1102.234110 66.545 26.9683
1110.221353 67.473 -13.9399
1118.266475 67.500 -44.7305
1126.369895 67.326 -70.3306
1134.532035 66.773 -101.5356
1142.753322 65.092 -133.5581
1151.034184 62.433 -64.7617
1159.375052 59.722 -50.2603
1167.776361 58.807 -20.6812
1176.238550 60.789 -5.3628
1184.762060 63.084 -20.9058
1193.347334 64.455 -43.3423
1201.994821 64.396 -69.4409
1210.704971 62.709 -88.1699
1219.478238 60.314 -86.9146
1228.315080 58.989 -63.5615
1237.215957 59.504 -34.8755
1246.181334 60.636 -46.7793
1255.211678 61.340 -68.0020
1264.307459 62.064 -90.8345
1273.469152 63.591 24.1216
1282.697235 65.385 1.0063
1291.992188 66.385 -28.0610
1301.354495 66.373 -50.5210
1310.784647 65.895 -64.6606
1320.283132 65.754 -71.6196
1329.850448 66.383 -78.1807
1339.487093 66.753 -97.4082
1349.193569 65.649 -119.9717
1358.970381 63.186 -116.7026
1368.818041 61.307 -93.6323
1378.737061 61.222 -96.8032
1388.727958 61.422 -109.8423
1398.791253 61.840 -93.5850
1408.927471 62.837 -80.6851
1419.137140 63.323 -97.2573
1429.420793 63.293 -110.0903
1439.778965 62.754 -127.5576
1450.212197 61.672 -130.6328
1460.721033 61.310 -80.8267
1471.306019 62.540 -77.3804
1481.967709 64.147 -74.4092
1492.706658 64.801 -95.0488
1503.523426 64.151 -116.1499
1514.418576 62.861 -129.8721
1525.392678 61.367 -142.0596
1536.446302 59.862 -149.6128
1547.580025 59.658 -123.3887
1558.794428 61.129 -76.6626
1570.090095 62.495 -88.2407
1581.467615 63.372 -100.0156
1592.927581 63.746 -115.2476
1604.470591 63.664 -123.5547
1616.097246 63.637 -126.6050
1627.808153 64.099 -127.6006
1639.603922 65.384 -130.6611
1651.485168 66.463 -146.5684
1663.452510 67.015 -164.1982
1675.506573 67.243 173.9849
1687.647984 66.447 145.5371
1699.877377 64.432 128.9521
1712.195390 62.783 177.5527
1724.602663 62.628 -149.5303
1737.099845 63.172 -165.6904
1749.687587 63.604 171.8467
1762.366544 62.723 144.4927
1775.137379 60.707 136.8828
1788.000756 59.786 163.3228
1800.957346 60.807 155.3936
1814.007826 61.973 133.7217
1827.152874 63.192 106.0962
1840.393177 64.602 40.1792
1853.729425 65.906 -56.3438
1867.162312 67.208 -118.9487
1880.692540 67.844 -166.1431
1894.320813 67.520 155.1167
1908.047843 66.659 121.8013
1921.874344 65.261 107.0840
1935.801038 63.947 122.6602
