* Measurement data measured by REW V5.31.1
* Source: Scarlett 2i4 USB, MICROPHONE, R, volume: no control
* Format: 512k Log Swept Sine, 1 sweep at -18.0 dBFS with no timing reference
* Dated: May 16, 2024 7:49:27 AM
* REW Settings:
*  C-weighting compensation: Off
*  Target level: 75.0 dB
* Note: ; 
* Measurement: bns-back12-side12-p1-c
* Smoothing: 1/48 octave
* Frequency Step: 96 ppo
* Start Frequency: 10.093689 Hz
*
* Freq(Hz) SPL(dB) Phase(degrees)
10.093689 46.859 21.3337
10.166832 47.199 20.7547
10.240505 47.608 19.9671
10.314712 48.029 18.9986
10.389457 48.446 17.8629
10.464743 48.838 16.5406
10.540575 49.190 14.9578
10.616956 49.510 13.2383
10.693891 49.795 11.5109
10.771383 50.038 9.8776
10.849437 50.235 8.1854
10.928057 50.390 6.3998
11.007246 50.505 4.7024
11.087009 50.583 3.2744
11.167350 50.617 2.1376
11.248273 50.606 1.1097
11.329783 50.569 0.3239
11.411883 50.526 -0.0535
11.494578 50.482 0.1148
11.577873 50.424 0.7602
11.661771 50.386 1.8291
11.746277 50.418 3.2684
11.831395 50.549 5.0661
11.917130 50.767 7.3094
12.003487 51.068 9.6213
12.090469 51.454 11.5782
12.178081 51.939 13.0641
12.266329 52.523 14.3426
12.355216 53.158 15.1093
12.444747 53.798 15.1303
12.534926 54.433 14.4952
12.625760 55.073 13.4530
12.717251 55.692 11.9901
12.809406 56.267 10.0693
12.902228 56.798 7.6990
12.995723 57.287 5.0454
13.089895 57.729 2.2287
13.184750 58.118 -0.7794
13.280292 58.456 -4.1002
13.376526 58.743 -7.5204
13.473458 58.979 -10.8704
13.571093 59.162 -14.3703
13.669434 59.293 -18.0004
13.768489 59.375 -21.5200
13.868261 59.407 -24.8723
13.968756 59.388 -28.3022
14.069979 59.323 -31.6242
14.171936 59.217 -34.6250
14.274632 59.064 -37.4665
14.378072 58.877 -40.1293
14.482261 58.668 -42.4486
14.587206 58.433 -44.3540
14.692910 58.186 -45.9163
14.799381 57.955 -47.1598
14.906624 57.748 -47.9599
15.014643 57.570 -48.3203
15.123446 57.447 -48.5066
15.233036 57.396 -48.5771
15.343421 57.413 -48.4357
15.454606 57.489 -48.4333
15.566596 57.621 -48.7457
15.679398 57.807 -49.2322
15.793018 58.012 -50.0328
15.907460 58.218 -51.2579
16.022732 58.426 -52.8105
16.138840 58.610 -54.5655
16.255788 58.755 -56.5743
16.373585 58.864 -58.8171
16.492234 58.924 -61.0058
16.611744 58.930 -63.2103
16.732119 58.884 -65.4013
16.853367 58.789 -67.2413
16.975494 58.640 -68.8048
17.098505 58.456 -70.0018
17.222408 58.255 -70.5575
17.347209 58.041 -70.4620
17.472914 57.863 -69.7335
17.599530 57.763 -68.2834
17.727063 57.749 -66.1594
17.855521 57.866 -63.8689
17.984909 58.134 -61.4280
18.115235 58.521 -59.2059
18.246506 58.993 -57.6683
18.378727 59.539 -56.6574
18.511907 60.096 -56.2813
18.646052 60.632 -56.5770
18.781169 61.133 -57.2874
18.917265 61.571 -58.2299
19.054347 61.942 -59.4619
19.192423 62.247 -60.5288
19.331499 62.483 -61.4463
19.471583 62.673 -62.0658
19.612682 62.842 -62.0437
19.754804 63.009 -61.5041
19.897956 63.239 -60.3908
20.042144 63.553 -58.6550
20.187378 63.983 -56.8339
20.333664 64.554 -55.0682
20.481010 65.234 -53.6958
20.629424 65.982 -53.2077
20.778913 66.774 -53.3639
20.929486 67.543 -54.4274
21.081150 68.272 -56.1884
21.233912 68.928 -58.4257
21.387782 69.496 -61.1843
21.542767 69.971 -64.0480
21.698874 70.346 -67.0328
21.856113 70.632 -69.9000
22.014492 70.834 -72.4137
22.174018 70.975 -74.6034
22.334700 71.083 -76.1364
22.496546 71.186 -77.1480
22.659566 71.334 -77.5851
22.823766 71.546 -77.5668
22.989157 71.851 -77.5013
23.155745 72.242 -77.4239
23.323542 72.690 -77.8321
23.492554 73.171 -78.6201
23.662790 73.634 -79.9134
23.834261 74.060 -81.5709
24.006973 74.423 -83.3186
24.180938 74.727 -85.0920
24.356163 74.985 -86.4446
24.532658 75.230 -87.4217
24.710431 75.519 -87.7366
24.889493 75.895 -87.6881
25.069853 76.413 -87.4296
25.251519 77.066 -87.5703
25.434502 77.841 -88.3766
25.618811 78.667 -90.2773
25.804456 79.496 -93.2341
25.991445 80.261 -97.2027
26.179790 80.931 -102.0391
26.369500 81.471 -107.4147
26.560584 81.868 -113.2103
26.753053 82.110 -119.0741
26.946917 82.198 -124.7405
27.142185 82.136 -130.0284
27.338869 81.952 -134.4079
27.536977 81.681 -137.7640
27.736522 81.414 -139.6414
27.937512 81.245 -140.2218
28.139959 81.289 -139.6491
28.343872 81.588 -139.1352
28.549264 82.124 -139.1504
28.756143 82.773 -140.7357
28.964522 83.439 -143.6399
29.174411 84.026 -147.9418
29.385821 84.475 -153.0289
29.598763 84.761 -158.7383
29.813248 84.869 -164.5843
30.029287 84.805 -170.1396
30.246891 84.583 -175.2612
30.466073 84.242 -179.3281
30.686842 83.844 177.7146
30.909212 83.458 176.1619
31.133193 83.193 175.8635
31.358797 83.100 175.8255
31.586035 83.194 175.9689
31.814921 83.413 175.4696
32.045465 83.678 174.1363
32.277680 83.924 172.0400
32.511577 84.102 169.5290
32.747169 84.210 166.9656
32.984469 84.264 164.5504
33.223488 84.300 162.5304
33.464239 84.363 160.8351
33.706735 84.479 159.3008
33.950987 84.659 157.7154
34.197010 84.885 155.7661
34.444816 85.123 153.3821
34.694417 85.345 150.5746
34.945827 85.525 147.4185
35.199059 85.656 144.1072
35.454126 85.741 140.7527
35.711041 85.790 137.4176
35.969818 85.815 134.1307
36.230470 85.823 130.8427
36.493011 85.808 127.4960
36.757455 85.762 124.0727
37.023814 85.668 120.5877
37.292104 85.513 117.1351
37.562338 85.293 113.8966
37.834530 85.014 111.0383
38.108695 84.697 108.7068
38.384846 84.372 107.0042
38.662999 84.079 105.9183
38.943167 83.851 105.2526
39.225365 83.699 104.7311
39.509608 83.614 104.0963
39.795911 83.566 103.1791
40.084289 83.520 101.9473
40.374756 83.444 100.5127
40.667328 83.324 99.1084
40.962020 83.165 98.0041
41.258848 82.997 97.4035
41.557827 82.866 97.3678
41.858972 82.818 97.7527
42.162299 82.880 98.2216
42.467824 83.045 98.3745
42.775564 83.277 97.9281
43.085533 83.525 96.8176
43.397749 83.753 95.1676
43.712227 83.944 93.1818
44.028983 84.102 91.0244
44.348036 84.239 88.7555
44.669400 84.362 86.3349
44.993093 84.467 83.6805
45.319131 84.539 80.7464
45.647532 84.556 77.5757
45.978313 84.502 74.3046
46.311491 84.374 71.1227
46.647083 84.183 68.2143
46.985107 83.950 65.6991
47.325581 83.701 63.5973
47.668521 83.456 61.8362
48.013947 83.226 60.2997
48.361876 83.009 58.8922
48.712326 82.799 57.5766
49.065315 82.593 56.3687
49.420863 82.392 55.3001
49.778987 82.203 54.3784
50.139706 82.032 53.5669
50.503039 81.882 52.7950
50.869005 81.749 51.9902
51.237623 81.623 51.1169
51.608912 81.494 50.1976
51.982891 81.356 49.2996
52.359580 81.211 48.4938
52.739000 81.066 47.8089
53.121168 80.927 47.2221
53.506106 80.792 46.7008
53.893833 80.658 46.2619
54.284370 80.524 45.9882
54.677737 80.404 45.9705
55.073955 80.319 46.2010
55.473043 80.284 46.5215
55.875024 80.294 46.7145
56.279917 80.324 46.6756
56.687745 80.350 46.5083
57.098527 80.369 46.4836
57.512287 80.412 46.8609
57.929045 80.535 47.6813
58.348822 80.789 48.6698
58.771642 81.190 49.2868
59.197525 81.707 48.9755
59.626495 82.272 47.4173
60.058573 82.813 44.5929
60.493782 83.271 40.7106
60.932145 83.611 36.1190
61.373685 83.823 31.1670
61.818424 83.919 26.1675
62.266386 83.924 21.3201
62.717593 83.865 16.6707
63.172071 83.761 12.1765
63.629842 83.620 7.7859
64.090930 83.445 3.5056
64.555359 83.248 -0.6001
65.023154 83.055 -4.5198
65.494339 82.897 -8.4158
65.968938 82.790 -12.6741
66.446976 82.713 -17.7107
66.928478 82.617 -23.7887
67.413469 82.449 -30.9309
67.901975 82.175 -39.0210
68.394021 81.791 -47.9366
68.889632 81.321 -57.7905
69.388835 80.810 -68.9828
69.891655 80.306 -82.2682
70.398118 79.858 -98.5680
70.908252 79.519 -118.6987
71.422083 79.349 -142.5811
71.939636 79.384 -168.8541
72.460941 79.608 165.4100
72.986023 79.951 142.5884
73.514909 80.355 123.9418
74.047629 80.826 109.4081
74.584208 81.411 98.3286
75.124676 82.149 89.5214
75.669061 83.024 81.7750
76.217390 83.979 74.0886
76.769692 84.944 65.8958
77.325997 85.847 56.9314
77.886333 86.626 47.1691
78.450730 87.233 36.7925
79.019216 87.636 26.1279
79.591822 87.831 15.6893
80.168577 87.852 5.9805
80.749512 87.775 -2.6477
81.334656 87.692 -10.2393
81.924040 87.665 -17.3492
82.517696 87.682 -24.6309
83.115653 87.681 -32.3871
83.717943 87.596 -40.4172
84.324598 87.408 -48.2444
84.935649 87.142 -55.4542
85.551128 86.853 -61.8443
86.171066 86.606 -67.4875
86.795497 86.444 -72.7688
87.424453 86.361 -78.2787
88.057967 86.289 -84.3779
88.696071 86.145 -90.8514
89.338800 85.894 -97.0475
89.986185 85.570 -102.2131
90.638262 85.293 -105.7101
91.295065 85.251 -107.5052
91.956626 85.585 -109.0550
92.622982 86.210 -112.5559
93.294166 86.883 -118.6743
93.970214 87.436 -126.5098
94.651161 87.828 -135.1458
95.337042 88.049 -144.2511
96.027894 88.067 -153.5281
96.723752 87.871 -162.2277
97.424652 87.523 -169.4655
98.130631 87.153 -174.8933
98.841726 86.885 -178.9294
99.557974 86.781 177.6697
100.279412 86.840 174.3025
101.006078 87.027 170.6283
101.738010 87.297 166.4354
102.475245 87.597 161.6168
103.217823 87.880 156.3181
103.965782 88.131 150.8835
104.719161 88.370 145.5402
105.477999 88.625 140.2629
106.242336 88.917 134.8715
107.012212 89.247 129.0415
107.787666 89.578 122.3533
108.568740 89.835 114.5845
109.355474 89.943 105.9775
110.147909 89.864 97.1293
110.946086 89.617 88.5903
111.750047 89.244 80.4277
112.559834 88.752 72.2534
113.375489 88.089 63.7952
114.197055 87.166 55.3687
115.024574 85.917 48.0411
115.858089 84.360 43.4919
116.697645 82.645 43.0038
117.543284 81.017 46.3605
118.395051 79.731 52.8347
119.252990 79.005 61.1194
120.117147 78.863 68.2324
120.987565 79.083 72.8271
121.864291 79.473 75.8159
122.747370 79.976 77.7285
123.636848 80.568 78.1484
124.532771 81.163 76.2279
125.435187 81.603 71.3406
126.344142 81.694 63.6721
127.259684 81.257 54.2489
128.181860 80.155 44.8125
129.110718 78.330 37.7485
130.046308 76.027 37.4858
130.988677 74.898 74.5568
131.937875 76.966 138.8301
132.893951 80.093 141.6860
133.856956 82.683 133.5664
134.826938 84.543 122.3262
135.803950 85.725 110.0679
136.788041 86.337 98.4310
137.779264 86.531 88.5079
138.777669 86.470 80.7574
139.783309 86.334 75.3538
140.796237 86.273 71.2727
141.816504 86.274 66.6328
142.844165 86.201 61.2081
143.879273 86.000 56.3018
144.921881 85.762 52.8098
145.972045 85.611 50.1882
147.029819 85.570 47.0295
148.095257 85.555 42.7288
149.168417 85.508 37.8143
150.249353 85.442 32.3212
151.338121 85.341 25.3623
152.434780 85.132 16.4141
153.539385 84.738 5.1677
154.651995 84.090 -9.0282
155.772667 83.167 -27.0273
156.901460 82.120 -50.9004
158.038432 81.385 -84.3508
159.183644 81.492 -125.8521
160.337154 82.424 -162.6921
161.499023 83.671 170.7471
162.669312 84.867 151.6842
163.848081 85.872 137.0491
165.035392 86.640 125.1069
166.231306 87.201 115.4774
167.435887 87.640 107.9442
168.649196 88.023 101.7557
169.871298 88.354 96.2015
171.102255 88.632 91.3402
172.342133 88.912 87.6449
173.590995 89.266 84.6531
174.848907 89.668 81.0498
176.115934 90.019 76.5941
177.392143 90.279 72.1681
178.677599 90.480 68.1918
179.972371 90.656 64.4578
181.276525 90.822 60.9084
182.590129 90.993 57.6027
183.913252 91.175 54.2408
185.245964 91.326 50.2863
186.588332 91.371 45.8092
187.940428 91.267 41.4916
189.302322 91.028 38.0394
190.674085 90.715 35.9513
192.055788 90.462 36.0447
193.447503 90.510 38.7960
194.849303 91.038 42.0940
196.261262 91.904 42.4182
197.683452 92.793 38.9712
199.115948 93.509 33.2772
200.558824 94.015 26.7134
202.012156 94.334 19.8074
203.476019 94.479 12.5680
204.950490 94.425 5.0061
206.435646 94.140 -2.4238
207.931564 93.628 -8.8456
209.438322 92.964 -13.3098
210.955998 92.292 -15.4595
212.484672 91.762 -15.9318
214.024424 91.460 -15.7837
215.575333 91.377 -15.9786
217.137481 91.440 -17.1038
218.710948 91.561 -19.2552
220.295818 91.679 -22.1500
221.892172 91.764 -25.6483
223.500094 91.790 -29.6418
225.119668 91.743 -33.9189
226.750978 91.624 -38.3105
228.394109 91.434 -42.7188
230.049147 91.189 -46.9471
231.716178 90.920 -50.8185
233.395289 90.661 -54.5790
235.086567 90.420 -58.6029
236.790102 90.192 -63.0068
238.505980 89.953 -68.3188
240.234293 89.611 -75.2218
241.975130 89.036 -83.4733
243.728581 88.127 -92.0945
245.494739 86.831 -100.4138
247.273695 85.084 -107.9502
249.065542 82.799 -112.6281
250.870374 80.022 -108.8123
252.688284 77.398 -85.3292
254.519367 76.507 -50.4152
256.363720 77.493 -34.9508
258.221437 78.789 -32.0835
260.092616 79.717 -32.7571
261.977354 80.332 -32.5312
263.875750 80.929 -29.8792
265.787903 81.759 -26.2480
267.713911 82.874 -23.9017
269.653877 84.180 -23.5740
271.607900 85.488 -26.5520
273.576083 86.550 -33.5421
275.558528 87.233 -42.5214
277.555338 87.617 -50.9006
279.566619 87.910 -57.8787
281.592474 88.276 -64.5890
283.633009 88.680 -73.2859
285.688331 88.901 -85.3167
287.758546 88.705 -99.8883
289.843763 87.965 -115.1934
291.944090 86.651 -129.9229
294.059638 84.735 -143.5861
296.190515 82.151 -154.5916
298.336833 79.063 -153.0912
300.498705 77.058 -96.5226
302.676243 78.133 -68.8500
304.869559 80.305 -73.4617
307.078770 82.057 -85.2179
309.303989 83.208 -100.0394
311.545334 83.784 -117.0857
313.802919 83.742 -136.2667
316.076865 82.973 -156.6913
318.367288 81.379 -176.0101
320.674309 79.017 170.9744
322.998047 76.744 -178.7262
325.338624 76.785 -147.9384
327.696162 78.684 -152.2020
330.070783 80.393 -171.1714
332.462612 81.469 166.9785
334.871773 82.037 145.1993
337.298392 82.188 123.9259
339.742595 81.909 103.9944
342.204510 81.241 87.8058
344.684265 80.519 78.6056
347.181989 80.347 75.4597
349.697813 80.894 71.3051
352.231868 81.694 63.0281
354.784285 82.342 52.4800
357.355198 82.746 41.8489
359.944741 82.991 32.1223
362.553049 83.195 23.1049
365.180258 83.363 13.3499
367.826505 83.350 2.0385
370.491927 83.019 -9.7805
373.176665 82.376 -20.5823
375.880856 81.504 -30.6669
378.604644 80.397 -41.4071
381.348169 78.920 -53.5388
384.111575 76.870 -67.4755
386.895006 74.241 -82.5752
389.698607 72.388 -122.2305
392.522524 73.526 77.0396
395.366904 75.653 58.1187
398.231895 76.890 39.8972
401.117648 77.078 25.5227
404.024312 76.939 23.2480
406.952038 78.007 42.7627
409.900981 80.360 52.9800
412.871292 82.674 46.4006
415.863128 84.392 33.6157
418.876643 85.400 17.8501
421.911996 85.601 0.4219
424.969344 84.935 -15.4385
428.048847 83.669 -22.9829
431.150666 82.727 -17.0923
434.274961 82.740 -14.7827
437.421897 82.824 -24.1807
440.591636 82.228 -34.8262
443.784345 81.035 -39.6753
447.000189 80.043 -31.1543
450.239337 80.258 -17.1072
453.501956 81.055 -19.2229
456.788219 81.292 -29.5708
460.098294 80.826 -38.0195
463.432356 80.787 -29.9717
466.790578 82.731 0.5188
470.173135 85.461 1.4868
473.580203 87.554 -14.9329
477.011961 88.776 -35.5925
480.468586 89.259 -56.8835
483.950259 89.230 -77.3977
487.457163 88.892 -98.6863
490.989478 88.188 -123.6777
494.547390 86.971 -152.8574
498.131084 85.393 171.5798
501.740748 84.041 120.4575
505.376568 83.461 52.4114
509.038735 83.432 -3.4158
512.727439 83.514 -42.7783
516.442874 83.490 -75.1450
520.185232 83.019 -106.9512
523.954708 81.768 -139.0986
527.751500 79.851 -168.0430
531.575805 78.847 -147.6902
535.427822 80.796 -104.4365
539.307753 83.749 -132.7439
543.215800 86.106 -167.8267
547.152165 87.621 156.3154
551.117055 88.321 122.0366
555.110677 88.273 90.8594
559.133237 87.532 63.4653
563.184947 86.076 41.0496
567.266018 83.989 28.1658
571.376661 81.925 29.9863
575.517092 81.180 40.2712
579.687526 82.043 44.4385
583.888181 83.459 41.3213
588.119275 84.476 29.6411
592.381030 84.518 13.1765
596.673667 83.548 0.6677
600.997410 82.482 5.3408
605.352485 83.106 27.7773
609.739119 84.848 28.2791
614.157540 85.897 12.7302
618.607979 85.701 -4.2678
623.090667 84.701 -10.5120
627.605839 84.424 3.0337
632.153730 85.698 12.0776
636.734576 87.193 4.4924
641.348617 88.287 -6.0911
645.996094 89.387 -13.5864
650.677248 90.605 -24.2932
655.392323 91.481 -41.6724
660.141566 91.618 -63.3240
664.925224 90.832 -85.6101
669.743546 89.170 -103.9172
674.596784 86.985 -115.5791
679.485191 84.907 -122.6521
684.409020 83.673 -129.6958
689.368530 83.439 -145.0408
694.363979 83.279 -173.2336
699.395626 82.433 153.0496
704.463736 81.226 123.5300
709.568570 80.685 101.3948
714.710396 81.580 91.3872
719.889483 83.473 83.0359
725.106099 85.085 65.4138
730.360516 86.011 47.0322
735.653010 86.442 32.7778
740.983855 87.173 28.2639
746.353329 88.555 22.8450
751.761713 89.706 7.8108
757.209288 89.904 -11.5435
762.696339 89.171 -26.4565
768.223151 88.120 -33.6809
773.790013 87.522 -36.2605
779.397214 87.940 -34.7476
785.045047 88.852 -43.5388
790.733808 88.893 -65.5398
796.463791 87.406 -88.2375
802.235296 84.515 -100.6797
808.048623 81.397 -84.1226
813.904077 81.066 -0.1741
819.801961 83.028 -2.4575
825.742584 84.949 -10.5383
831.726255 86.645 -17.4753
837.753287 87.958 -29.1770
843.823992 89.029 -39.5303
849.938689 89.940 -52.8191
856.097695 90.257 -72.1472
862.301332 89.856 -93.5210
868.549922 88.758 -118.6340
874.843793 86.975 -150.4951
881.183272 85.411 137.4758
887.568689 85.361 16.5051
894.000378 85.879 -21.2839
900.478673 86.001 -43.1125
907.003913 86.025 -53.8154
913.576437 86.217 -62.4658
920.196588 86.181 -72.6040
926.864712 86.159 -74.5396
933.581156 86.545 -79.9829
940.346270 86.547 -94.9998
947.160407 85.563 -110.3672
954.023921 83.693 -118.8550
960.937172 81.420 -119.4824
967.900519 79.280 -114.3921
974.914325 77.930 -101.3569
981.978956 78.103 -76.6321
989.094780 78.879 -75.9548
996.262169 79.305 -78.7185
1003.481495 80.437 -57.5293
1010.753136 82.165 -52.9907
1018.077470 83.311 -64.3040
1025.454879 84.166 -70.0801
1032.885748 85.220 -75.6091
1040.370463 85.906 -90.0403
1047.909417 86.229 -95.5110
1055.503000 86.939 -91.5283
1063.151610 87.159 -111.1567
1070.855645 85.913 -133.2139
1078.615506 83.699 -132.2966
1086.431599 82.136 -116.9580
1094.304330 81.310 -127.6130
1102.234110 80.433 -129.3445
1110.221353 80.930 -76.1821
1118.266475 83.035 -73.4822
1126.369895 85.230 -84.8984
1134.532035 86.626 -103.6531
1142.753322 86.968 -124.5505
1151.034184 86.584 -141.7039
1159.375052 86.010 -156.9504
1167.776361 85.189 -176.4700
1176.238550 83.752 161.5229
1184.762060 81.760 138.1619
1193.347334 79.560 102.8142
1201.994821 77.161 35.8872
1210.704971 75.378 -37.3945
1219.478238 75.997 -26.8760
1228.315080 78.121 -41.0078
1237.215957 79.836 -64.1021
1246.181334 80.728 -84.4351
1255.211678 81.156 -99.3623
1264.307459 81.260 -114.5049
1273.469152 80.654 -128.6592
1282.697235 79.644 -135.0415
1291.992188 78.872 -139.2661
1301.354495 78.586 -142.1157
1310.784647 78.862 -142.0898
1320.283132 79.137 -154.1650
1329.850448 78.329 -173.2271
1339.487093 76.710 178.0903
1349.193569 75.076 164.4663
1358.970381 72.881 140.7012
1368.818041 71.220 74.8364
1378.737061 72.472 -60.8140
1388.727958 73.971 -96.0083
1398.791253 73.695 -129.0825
1408.927471 72.157 -153.2686
1419.137140 72.096 -158.0874
1429.420793 74.278 -31.8945
1439.778965 75.826 -63.1650
1450.212197 75.950 -88.8174
1460.721033 75.578 -106.0142
1471.306019 75.732 -100.6128
1481.967709 76.814 -80.0884
1492.706658 77.728 -96.2544
1503.523426 77.928 -115.2773
1514.418576 77.691 -132.1089
1525.392678 77.070 -150.4927
1536.446302 75.891 -171.3110
1547.580025 74.198 174.0537
1558.794428 73.501 -149.6328
1570.090095 74.525 -145.4824
1581.467615 75.555 -97.3354
1592.927581 76.145 -127.5474
1604.470591 76.292 177.1396
1616.097246 76.430 107.8813
1627.808153 77.628 51.5742
1639.603922 79.800 15.0913
1651.485168 81.470 -17.5342
1663.452510 82.117 -45.4448
1675.506573 82.323 -66.0571
1687.647984 82.356 -85.5840
1699.877377 82.088 -103.3125
1712.195390 81.750 -118.6143
1724.602663 81.207 -138.6313
1737.099845 80.156 -161.0474
1749.687587 78.799 169.5903
1762.366544 77.083 123.3706
1775.137379 75.406 52.5366
1788.000756 75.188 4.4741
1800.957346 76.391 -21.2095
1814.007826 77.390 -39.2158
1827.152874 78.927 -39.6304
1840.393177 81.065 -45.7134
1853.729425 82.693 -62.5156
1867.162312 83.410 -83.0591
1880.692540 83.097 -102.4883
1894.320813 82.161 -115.4951
1908.047843 81.147 -114.5605
1921.874344 80.743 -109.7383
1935.801038 80.907 -113.7583
1949.828650 81.171 -121.2437
1963.957912 81.368 -124.1665
1978.189561 81.370 -139.9238
1992.524338 81.346 -166.3921
2006.962991 81.939 139.1528
2021.506272 83.389 23.4404
2036.154940 85.259 -32.7734
2050.909758 86.680 -69.1294
