* Measurement data measured by REW V5.31.1
* Source: Scarlett 2i4 USB, MICROPHONE, R, volume: no control
* Format: 512k Log Swept Sine, 1 sweep at -18.0 dBFS with no timing reference
* Dated: May 16, 2024 7:05:37 AM
* REW Settings:
*  C-weighting compensation: Off
*  Target level: 75.0 dB
* Note: ; 
* Measurement: bns-back12-p1-c
* Smoothing: 1/48 octave
* Frequency Step: 96 ppo
* Start Frequency: 10.093689 Hz
*
* Freq(Hz) SPL(dB) Phase(degrees)
10.093689 44.777 -13.0371
10.166832 44.975 -11.9512
10.240505 45.216 -10.8343
10.314712 45.464 -9.8077
10.389457 45.722 -8.9799
10.464743 46.009 -8.4222
10.540575 46.346 -8.0424
10.616956 46.710 -7.8322
10.693891 47.082 -7.8042
10.771383 47.447 -7.9672
10.849437 47.805 -8.3239
10.928057 48.162 -8.8336
11.007246 48.513 -9.4465
11.087009 48.855 -10.1199
11.167350 49.184 -10.8475
11.248273 49.502 -11.6524
11.329783 49.812 -12.4943
11.411883 50.120 -13.3343
11.494578 50.426 -14.1442
11.577873 50.727 -14.9403
11.661771 51.029 -15.7412
11.746277 51.337 -16.5602
11.831395 51.655 -17.3834
11.917130 51.981 -18.1710
12.003487 52.316 -18.9917
12.090469 52.659 -19.9138
12.178081 53.014 -20.9389
12.266329 53.380 -21.9931
12.355216 53.750 -23.1459
12.444747 54.120 -24.4685
12.534926 54.488 -25.9562
12.625760 54.856 -27.5496
12.717251 55.214 -29.2615
12.809406 55.555 -31.1189
12.902228 55.879 -33.1495
12.995723 56.185 -35.2910
13.089895 56.466 -37.4828
13.184750 56.717 -39.7376
13.280292 56.939 -42.1345
13.376526 57.131 -44.5516
13.473458 57.288 -46.8758
13.571093 57.408 -49.2255
13.669434 57.494 -51.5875
13.768489 57.547 -53.8074
13.868261 57.565 -55.8250
13.968756 57.549 -57.7666
14.069979 57.507 -59.5309
14.171936 57.445 -60.9929
14.274632 57.362 -62.1869
14.378072 57.268 -63.1334
14.482261 57.183 -63.8109
14.587206 57.107 -64.1375
14.692910 57.048 -64.1774
14.799381 57.021 -64.0778
14.906624 57.037 -63.8268
15.014643 57.090 -63.4144
15.123446 57.177 -63.0542
15.233036 57.298 -62.8392
15.343421 57.449 -62.6948
15.454606 57.608 -62.7007
15.566596 57.763 -62.9275
15.679398 57.915 -63.3301
15.793018 58.048 -63.8004
15.907460 58.151 -64.3295
16.022732 58.227 -64.9395
16.138840 58.276 -65.4335
16.255788 58.295 -65.7499
16.373585 58.293 -65.9340
16.492234 58.290 -65.8491
16.611744 58.300 -65.4238
16.732119 58.319 -64.7275
16.853367 58.360 -63.8395
16.975494 58.465 -62.6908
17.098505 58.627 -61.4734
17.222408 58.850 -60.4261
17.347209 59.134 -59.4662
17.472914 59.456 -58.8004
17.599530 59.798 -58.5496
17.727063 60.156 -58.6143
17.855521 60.501 -59.0152
17.984909 60.823 -59.7775
18.115235 61.115 -60.7680
18.246506 61.364 -61.8920
18.378727 61.568 -63.2026
18.511907 61.726 -64.4690
18.646052 61.834 -65.7005
18.781169 61.895 -66.8371
18.917265 61.916 -67.6621
19.054347 61.896 -68.2531
19.192423 61.854 -68.3873
19.331499 61.794 -68.0063
19.471583 61.745 -67.0600
19.612682 61.742 -65.4070
19.754804 61.804 -63.0978
19.897956 61.991 -60.3128
20.042144 62.324 -57.0967
20.187378 62.809 -54.0453
20.333664 63.459 -51.3723
20.481010 64.228 -49.3850
20.629424 65.064 -48.4740
20.778913 65.941 -48.3701
20.929486 66.796 -49.2998
21.081150 67.613 -50.9853
21.233912 68.362 -53.2777
21.387782 69.027 -56.1680
21.542767 69.602 -59.2821
21.698874 70.078 -62.6702
21.856113 70.458 -66.0501
22.014492 70.741 -69.2544
22.174018 70.940 -72.2510
22.334700 71.072 -74.6618
22.496546 71.159 -76.6004
22.659566 71.245 -77.7656
22.823766 71.360 -78.2803
22.989157 71.563 -78.2967
23.155745 71.864 -77.9204
23.323542 72.277 -77.7547
23.492554 72.783 -77.7949
23.662790 73.327 -78.5188
23.834261 73.883 -79.7536
24.006973 74.392 -81.4993
24.180938 74.843 -83.5788
24.356163 75.215 -85.6340
24.532658 75.520 -87.5808
24.710431 75.784 -88.9536
24.889493 76.053 -89.8229
25.069853 76.391 -89.9321
25.251519 76.849 -89.7800
25.434502 77.473 -89.6972
25.618811 78.236 -89.8827
25.804456 79.112 -91.0931
25.991445 80.013 -93.6329
26.179790 80.891 -97.2306
26.369500 81.680 -101.9182
26.560584 82.356 -107.3661
26.753053 82.888 -113.4421
26.946917 83.267 -119.7506
27.142185 83.482 -126.3201
27.338869 83.533 -132.5224
27.536977 83.422 -138.4908
27.736522 83.169 -143.4843
27.937512 82.811 -147.5175
28.139959 82.406 -149.9699
28.343872 82.078 -151.0023
28.549264 81.922 -150.5206
28.756143 82.047 -149.6831
28.964522 82.425 -149.2497
29.174411 82.985 -150.0766
29.385821 83.578 -152.4721
29.598763 84.118 -156.1747
29.813248 84.523 -160.9477
30.029287 84.762 -166.1414
30.246891 84.823 -171.6379
30.466073 84.709 -176.7031
30.686842 84.450 178.9036
30.909212 84.088 175.5651
31.133193 83.716 173.6450
31.358797 83.435 172.9288
31.586035 83.333 173.2146
31.814921 83.454 173.3812
32.045465 83.736 172.7935
32.277680 84.094 171.0546
32.511577 84.406 168.0763
32.747169 84.601 164.3667
32.984469 84.637 160.2335
33.223488 84.498 156.2545
33.464239 84.207 153.1192
33.706735 83.827 151.2116
33.950987 83.457 151.0569
34.197010 83.271 152.5754
34.444816 83.386 154.8187
34.694417 83.822 156.6277
34.945827 84.485 156.8718
35.199059 85.205 155.0688
35.454126 85.864 151.5858
35.711041 86.388 146.8373
35.969818 86.738 141.2161
36.230470 86.902 135.2661
36.493011 86.885 129.3663
36.757455 86.702 123.7933
37.023814 86.379 118.8476
37.292104 85.956 114.8381
37.562338 85.490 111.8884
37.834530 85.042 109.9472
38.108695 84.663 108.8300
38.384846 84.382 108.1975
38.662999 84.198 107.6504
38.943167 84.082 106.9276
39.225365 84.001 105.9838
39.509608 83.931 104.8666
39.795911 83.862 103.6536
40.084289 83.791 102.4058
40.374756 83.718 101.1438
40.667328 83.637 99.8730
40.962020 83.543 98.6421
41.258848 83.433 97.5568
41.557827 83.318 96.7426
41.858972 83.221 96.2807
42.162299 83.172 96.1670
42.467824 83.198 96.1473
42.775564 83.304 96.0548
43.085533 83.474 95.6093
43.397749 83.679 94.7033
43.712227 83.892 93.3532
44.028983 84.100 91.6332
44.348036 84.295 89.5961
44.669400 84.475 87.2434
44.993093 84.630 84.5494
45.319131 84.744 81.5132
45.647532 84.796 78.2018
45.978313 84.773 74.7598
46.311491 84.670 71.3810
46.647083 84.499 68.2572
46.985107 84.282 65.5202
47.325581 84.045 63.1974
47.668521 83.813 61.2100
48.013947 83.594 59.4234
48.361876 83.384 57.7284
48.712326 83.174 56.0992
49.065315 82.956 54.5934
49.420863 82.737 53.2941
49.778987 82.530 52.2290
50.139706 82.353 51.3171
50.503039 82.208 50.3918
50.869005 82.084 49.2889
51.237623 81.953 47.9550
51.608912 81.789 46.4909
51.982891 81.583 45.1006
52.359580 81.345 43.9765
52.739000 81.097 43.1877
53.121168 80.859 42.6587
53.506106 80.631 42.2763
53.893833 80.403 42.0405
54.284370 80.176 42.1083
54.677737 79.972 42.6649
55.073955 79.836 43.6816
55.473043 79.801 44.8059
55.875024 79.849 45.5809
56.279917 79.931 45.8061
56.687745 79.995 45.6628
57.098527 80.030 45.5647
57.512287 80.068 45.8634
57.929045 80.164 46.6310
58.348822 80.368 47.6471
58.771642 80.702 48.5135
59.197525 81.156 48.8146
59.626495 81.696 48.2175
60.058573 82.270 46.5242
60.493782 82.821 43.6980
60.932145 83.298 39.8984
61.373685 83.672 35.3914
61.818424 83.933 30.4729
62.266386 84.086 25.3881
62.717593 84.145 20.2754
63.172071 84.122 15.2303
63.629842 84.029 10.3528
64.090930 83.885 5.7490
64.555359 83.723 1.5054
65.023154 83.586 -2.4419
65.494339 83.512 -6.3787
65.968938 83.507 -10.7880
66.446976 83.537 -16.0724
66.928478 83.547 -22.3984
67.413469 83.490 -29.7000
67.901975 83.343 -37.8450
68.394021 83.108 -46.7574
68.889632 82.796 -56.5516
69.388835 82.423 -67.4512
69.891655 82.008 -79.8269
70.398118 81.581 -94.1178
70.908252 81.181 -110.8761
71.422083 80.852 -130.4229
71.939636 80.622 -152.6323
72.460941 80.490 -176.2487
72.986023 80.426 160.5852
73.514909 80.409 139.9969
74.047629 80.480 123.2628
74.584208 80.759 110.7398
75.124676 81.361 101.3942
75.669061 82.270 93.4371
76.217390 83.340 85.2820
76.769692 84.427 76.3707
77.325997 85.438 66.6616
77.886333 86.316 56.2490
78.450730 87.020 45.2957
79.019216 87.520 34.0837
79.591822 87.815 23.0919
80.168577 87.939 12.7622
80.749512 87.956 3.3718
81.334656 87.945 -5.0962
81.924040 87.960 -13.0021
82.517696 88.013 -20.8365
83.115653 88.070 -28.9789
83.717943 88.073 -37.5044
84.324598 87.975 -46.1389
84.935649 87.765 -54.4122
85.551128 87.478 -61.8476
86.171066 87.193 -68.1978
86.795497 86.996 -73.7127
87.424453 86.925 -79.1504
88.057967 86.930 -85.2366
88.696071 86.908 -92.1414
89.338800 86.772 -99.5119
89.986185 86.473 -106.6628
90.638262 86.036 -112.5129
91.295065 85.626 -115.7653
91.956626 85.552 -116.4420
92.622982 85.978 -117.3588
93.294166 86.693 -121.2994
93.970214 87.380 -128.2043
94.651161 87.879 -136.7416
95.337042 88.154 -145.9196
96.027894 88.201 -155.1206
96.723752 88.038 -163.7136
97.424652 87.720 -171.0593
98.130631 87.343 -176.7803
98.841726 87.019 179.1139
99.557974 86.852 176.2302
100.279412 86.902 173.8003
101.006078 87.150 170.9368
101.738010 87.509 167.0582
102.475245 87.874 162.0966
103.217823 88.171 156.4414
103.965782 88.384 150.7030
104.719161 88.553 145.3618
105.477999 88.749 140.4973
106.242336 89.027 135.7076
107.012212 89.383 130.2979
107.787666 89.745 123.7203
108.568740 90.016 115.9073
109.355474 90.118 107.2776
110.147909 90.019 98.4832
110.946086 89.745 90.1001
111.750047 89.349 82.2441
112.559834 88.856 74.4424
113.375489 88.213 66.1462
114.197055 87.304 57.5105
115.024574 86.021 49.8026
115.858089 84.360 45.2695
116.697645 82.499 45.9805
117.543284 80.790 51.8766
118.395051 79.607 60.9933
119.252990 79.151 70.7369
120.117147 79.303 78.1619
120.987565 79.747 82.5706
121.864291 80.297 85.3610
122.747370 80.917 86.9421
123.636848 81.593 87.1238
124.532771 82.313 85.8329
125.435187 82.964 81.4180
126.344142 83.271 73.3783
127.259684 83.049 64.0154
128.181860 82.290 55.3229
129.110718 80.997 48.0035
130.046308 79.148 43.7780
130.988677 77.080 49.9071
131.937875 76.511 90.7412
132.893951 78.576 124.6462
133.856956 81.228 126.6643
134.826938 83.315 119.4996
135.803950 84.704 109.5486
136.788041 85.507 99.5437
137.779264 85.886 90.7036
138.777669 85.988 83.4082
139.783309 85.962 77.9741
140.796237 85.943 73.6456
141.816504 85.914 68.7812
142.844165 85.755 63.3354
143.879273 85.428 58.7141
144.921881 85.028 55.8071
145.972045 84.677 54.0696
147.029819 84.404 52.2946
148.095257 84.156 50.2802
149.168417 83.945 48.8513
150.249353 83.849 47.5784
151.338121 83.842 44.6672
152.434780 83.766 39.3905
153.539385 83.443 31.8646
154.651995 82.704 22.4597
155.772667 81.400 11.7849
156.901460 79.419 -0.0323
158.038432 76.881 -14.2388
159.183644 75.194 -91.2462
160.337154 76.482 156.6960
161.499023 79.059 144.0590
162.669312 81.365 135.7001
163.848081 83.234 128.8717
165.035392 84.721 122.2864
166.231306 85.903 116.0681
167.435887 86.877 110.5969
168.649196 87.715 105.5936
169.871298 88.434 100.5437
171.102255 89.039 95.5992
172.342133 89.584 91.3450
173.590995 90.133 87.4869
174.848907 90.669 83.0300
176.115934 91.134 78.0049
177.392143 91.525 73.0626
178.677599 91.871 68.1299
179.972371 92.162 62.7723
181.276525 92.357 56.9778
182.590129 92.423 50.9976
183.913252 92.329 44.9121
185.245964 92.026 38.9122
186.588332 91.491 34.0143
187.940428 90.812 31.8677
189.302322 90.225 33.2773
190.674085 89.965 36.4524
192.055788 90.084 39.3676
193.447503 90.558 42.1320
194.849303 91.370 44.2400
196.261262 92.381 43.5830
197.683452 93.345 39.3563
199.115948 94.096 32.7678
200.558824 94.594 25.2341
202.012156 94.866 17.4011
203.476019 94.925 9.2794
204.950490 94.737 0.7943
206.435646 94.245 -7.4939
207.931564 93.439 -14.2101
209.438322 92.429 -17.5481
210.955998 91.482 -16.7327
212.484672 90.887 -13.6454
214.024424 90.737 -10.7896
215.575333 90.927 -9.3297
217.137481 91.304 -9.5465
218.710948 91.736 -11.5138
220.295818 92.112 -15.1421
221.892172 92.348 -19.9762
223.500094 92.428 -24.9525
225.119668 92.411 -29.4558
226.750978 92.358 -33.7500
228.394109 92.282 -38.3407
230.049147 92.157 -43.3363
231.716178 91.956 -48.5935
233.395289 91.656 -53.9719
235.086567 91.270 -58.9340
236.790102 90.874 -62.9657
238.505980 90.550 -67.0543
240.234293 90.237 -72.8563
241.975130 89.770 -80.4655
243.728581 89.019 -88.7061
245.494739 87.936 -96.8544
247.273695 86.467 -104.7460
249.065542 84.522 -111.0896
250.870374 82.059 -112.6082
252.688284 79.310 -103.1033
254.519367 77.284 -74.0112
256.363720 77.251 -46.8835
258.221437 78.332 -39.5068
260.092616 79.229 -39.9310
261.977354 79.697 -40.4143
263.875750 79.975 -38.1976
265.787903 80.377 -33.9664
267.713911 81.164 -28.8400
269.653877 82.526 -22.2806
271.607900 84.279 -19.1902
273.576083 85.858 -24.6851
275.558528 86.902 -35.0873
277.555338 87.459 -45.3998
279.566619 87.790 -53.8441
281.592474 88.104 -61.7361
283.633009 88.366 -71.6548
285.688331 88.327 -84.6570
287.758546 87.758 -98.8741
289.843763 86.621 -111.2751
291.944090 85.048 -120.6884
294.059638 83.155 -128.0319
296.190515 80.942 -132.6968
298.336833 78.513 -131.0343
300.498705 76.783 -110.9205
302.676243 77.416 -75.3923
304.869559 79.427 -71.0209
307.078770 81.099 -82.0803
309.303989 82.090 -96.8958
311.545334 82.510 -113.1495
313.802919 82.387 -131.8536
316.076865 81.569 -153.4432
318.367288 79.865 -176.1603
320.674309 77.309 165.4144
322.998047 75.054 -156.3746
325.338624 75.406 -110.8544
327.696162 77.152 -131.1135
330.070783 78.449 -157.6222
332.462612 79.087 175.6552
334.871773 79.275 150.4558
337.298392 79.162 127.3188
339.742595 78.802 107.1691
342.204510 78.345 92.2306
344.684265 78.229 84.5215
347.181989 78.837 80.0608
349.697813 79.931 73.0522
352.231868 81.072 63.2423
354.784285 82.026 51.7783
357.355198 82.684 39.2456
359.944741 83.026 26.6826
362.553049 83.171 15.6830
365.180258 83.261 5.4243
367.826505 83.252 -6.1447
370.491927 83.000 -18.7242
373.176665 82.461 -31.2810
375.880856 81.647 -44.2578
378.604644 80.553 -58.2332
381.348169 79.204 -74.3154
384.111575 77.704 -96.4585
386.895006 76.456 -132.4409
389.698607 76.447 169.5327
392.522524 77.798 118.0918
395.366904 79.226 83.6960
398.231895 79.884 57.0103
401.117648 79.616 37.1980
404.024312 78.909 30.2378
406.952038 79.150 42.4011
409.900981 80.879 50.8525
412.871292 82.911 45.7146
415.863128 84.505 34.0735
418.876643 85.442 18.8701
421.911996 85.568 1.5242
424.969344 84.800 -14.1792
428.048847 83.403 -21.1428
431.150666 82.261 -14.9177
434.274961 81.939 -13.5054
437.421897 81.535 -23.0518
440.591636 80.467 -28.7988
443.784345 79.807 -13.1201
447.000189 81.127 13.5178
450.239337 83.214 14.2556
453.501956 84.544 0.6980
456.788219 84.807 -14.6077
460.098294 84.332 -24.4590
463.432356 84.230 -19.3047
466.790578 85.699 -5.5149
470.173135 87.832 -9.0327
473.580203 89.452 -24.5835
477.011961 90.283 -43.9451
480.468586 90.396 -63.7974
483.950259 89.940 -82.6150
487.457163 89.078 -100.7122
490.989478 87.834 -119.9067
494.547390 86.119 -140.8804
498.131084 83.921 -165.9138
501.740748 81.638 154.7358
505.376568 80.665 -3.3037
509.038735 81.445 -47.5398
512.727439 82.688 -73.9673
516.442874 83.879 -95.6228
520.185232 84.744 -119.4878
523.954708 84.928 -146.7744
527.751500 84.231 -174.7273
531.575805 82.675 162.0073
535.427822 81.210 155.0811
539.307753 82.188 171.5491
543.215800 84.942 168.5330
547.152165 87.239 145.7908
551.117055 88.521 118.1438
555.110677 88.940 92.1982
559.133237 88.716 68.9941
563.184947 87.818 48.2368
567.266018 86.291 35.9348
571.376661 85.068 39.6091
575.517092 85.454 47.3550
579.687526 86.843 43.2556
583.888181 88.016 30.4102
588.119275 88.480 13.3967
592.381030 88.065 -4.3533
596.673667 86.789 -18.7290
600.997410 84.957 -24.3484
605.352485 83.631 -10.6448
609.739119 83.887 0.6826
614.157540 84.471 -8.1062
618.607979 84.114 -21.5208
623.090667 83.005 -24.2214
627.605839 82.811 -3.6326
632.153730 84.445 11.2820
636.734576 86.375 5.7292
641.348617 87.943 -4.2041
645.996094 89.474 -12.6946
650.677248 90.928 -25.7463
655.392323 91.860 -45.5125
660.141566 91.964 -69.1514
664.925224 91.115 -93.3748
669.743546 89.334 -114.1741
674.596784 86.896 -128.0359
679.485191 84.424 -136.3921
684.409020 82.760 -145.6082
689.368530 82.324 -162.0098
694.363979 82.436 169.2690
699.395626 82.169 133.9595
704.463736 81.485 103.6985
709.568570 81.150 84.3394
714.710396 81.939 76.4661
719.889483 83.584 70.5164
725.106099 85.035 56.7083
730.360516 85.947 42.1316
735.653010 86.519 30.3750
740.983855 87.511 27.6084
746.353329 89.257 25.3989
751.761713 90.762 10.8962
757.209288 91.246 -9.8682
762.696339 90.695 -27.9839
768.223151 89.536 -39.7295
773.790013 88.385 -45.1340
779.397214 88.098 -41.8674
785.045047 88.867 -43.9592
790.733808 89.329 -62.1008
796.463791 88.533 -85.1824
802.235296 86.515 -105.9229
808.048623 83.908 -128.2952
813.904077 82.257 63.4873
819.801961 82.714 13.5532
825.742584 83.871 -4.2542
831.726255 85.384 -10.3057
837.753287 87.193 -17.1619
843.823992 88.889 -27.9297
849.938689 90.103 -44.2371
856.097695 90.446 -65.6172
862.301332 89.987 -87.7559
868.549922 88.854 -114.1401
874.843793 86.960 -148.9080
881.183272 85.243 111.7793
887.568689 85.513 18.3564
894.000378 86.820 -11.3887
900.478673 87.930 -31.0400
907.003913 88.942 -44.1421
913.576437 89.739 -59.6533
920.196588 89.567 -79.9590
926.864712 88.316 -91.7148
933.581156 87.069 -91.3472
940.346270 86.402 -98.1519
947.160407 85.486 -110.0708
954.023921 83.895 -116.2891
960.937172 82.057 -115.2725
967.900519 80.523 -110.9385
974.914325 79.806 -103.6143
981.978956 79.956 -99.7866
989.094780 79.942 -112.5898
996.262169 79.599 -126.5576
1003.481495 80.618 -9.2236
1010.753136 82.437 -24.6558
1018.077470 83.741 -42.4697
1025.454879 84.813 -52.1055
1032.885748 85.903 -61.4126
1040.370463 86.844 -72.7739
1047.909417 87.910 -78.6655
1055.503000 89.005 -89.5938
1063.151610 88.942 -114.0596
1070.855645 87.259 -133.1543
1078.615506 84.994 -121.8799
1086.431599 83.801 -113.1719
1094.304330 82.856 -126.4082
1102.234110 81.263 -128.9072
1110.221353 80.531 -103.2065
1118.266475 81.980 -88.0977
1126.369895 84.266 -85.3945
1134.532035 85.792 -101.0547
1142.753322 86.084 -120.4746
1151.034184 85.721 -133.9316
1159.375052 85.254 -147.4888
1167.776361 84.348 -164.6318
1176.238550 82.905 179.1069
1184.762060 81.287 159.7622
1193.347334 79.486 125.3716
1201.994821 77.305 48.1084
1210.704971 75.907 -32.8472
1219.478238 76.917 -47.5596
1228.315080 78.953 -59.9775
1237.215957 80.524 -75.0679
1246.181334 81.546 -89.5381
1255.211678 82.008 -103.7148
1264.307459 82.002 -116.5962
1273.469152 81.452 -128.9424
1282.697235 80.466 -135.5815
1291.992188 79.552 -138.1475
1301.354495 79.264 -136.6860
1310.784647 79.831 -137.3931
1320.283132 80.266 -151.2554
1329.850448 79.508 -169.2271
1339.487093 77.774 -171.0757
1349.193569 75.894 -173.6294
1358.970381 73.895 178.1426
1368.818041 72.531 172.3438
1378.737061 72.764 -96.3965
1388.727958 73.649 -97.5732
1398.791253 73.483 -121.9204
1408.927471 72.379 -136.4893
1419.137140 72.056 -113.8794
1429.420793 73.864 -69.5625
1439.778965 75.770 -83.2017
1450.212197 76.617 -102.8354
1460.721033 76.705 -122.3774
1471.306019 76.229 -127.4189
1481.967709 76.088 -93.1265
1492.706658 76.581 -98.4146
1503.523426 77.208 -110.9805
1514.418576 77.591 -125.4131
1525.392678 77.246 -143.7583
1536.446302 75.756 -160.3203
1547.580025 73.502 -160.6187
1558.794428 72.734 -137.5430
1570.090095 74.995 -117.7998
1581.467615 77.820 -113.9502
1592.927581 79.519 -146.0005
1604.470591 79.905 167.4277
1616.097246 79.585 112.2856
1627.808153 79.773 57.1851
1639.603922 80.794 12.3066
1651.485168 81.587 -23.7256
1663.452510 81.757 -50.7793
1675.506573 81.781 -68.6836
1687.647984 82.036 -83.6538
1699.877377 82.340 -99.1045
1712.195390 82.567 -115.3003
1724.602663 82.468 -135.8623
1737.099845 81.713 -160.2349
1749.687587 80.207 171.1143
1762.366544 77.944 133.8774
1775.137379 75.523 71.1821
1788.000756 74.878 3.6191
1800.957346 76.020 -31.2661
1814.007826 76.867 -53.0508
1827.152874 78.275 -47.4502
1840.393177 80.790 -43.8154
1853.729425 82.972 -60.1982
1867.162312 84.085 -83.3535
1880.692540 83.763 -106.3301
1894.320813 82.539 -117.6343
1908.047843 81.793 -117.3945
1921.874344 81.623 -125.7490
1935.801038 81.326 -137.0742
1949.828650 81.408 -138.7983
1963.957912 81.810 -114.8789
1978.189561 81.898 -129.6406
1992.524338 81.683 -157.4302
2006.962991 81.733 156.9136
2021.506272 82.667 14.3843
2036.154940 84.604 -42.5615
