* Measurement data measured by REW V5.31.1
* Source: Scarlett 2i4 USB, MICROPHONE, R, volume: no control
* Format: 512k Log Swept Sine, 1 sweep at -18.0 dBFS with no timing reference
* Dated: May 16, 2024 6:59:08 AM
* REW Settings:
*  C-weighting compensation: Off
*  Target level: 75.0 dB
* Note: ; 
* Measurement: bns-back1-p1-rr
* Smoothing: 1/48 octave
* Frequency Step: 96 ppo
* Start Frequency: 10.093689 Hz
*
* Freq(Hz) SPL(dB) Phase(degrees)
10.093689 36.379 -136.0029
10.166832 36.051 -144.5899
10.240505 35.649 -164.4435
10.314712 35.255 119.8908
10.389457 35.020 69.3848
10.464743 35.571 54.5805
10.540575 37.350 46.0132
10.616956 39.642 39.8369
10.693891 41.867 34.8652
10.771383 43.638 30.5174
10.849437 44.920 26.1774
10.928057 45.905 21.8297
11.007246 46.704 17.6921
11.087009 47.405 13.8386
11.167350 48.037 10.0394
11.248273 48.557 6.0031
11.329783 48.977 1.9901
11.411883 49.317 -1.8033
11.494578 49.589 -5.4229
11.577873 49.781 -9.2854
11.661771 49.893 -13.1895
11.746277 49.931 -16.8914
11.831395 49.896 -20.3345
11.917130 49.786 -23.9467
12.003487 49.595 -27.5774
12.090469 49.316 -30.9594
12.178081 48.950 -33.9842
12.266329 48.496 -36.9963
12.355216 47.939 -39.8541
12.444747 47.259 -42.2504
12.534926 46.434 -43.9785
12.625760 45.474 -45.0822
12.717251 44.419 -45.2988
12.809406 43.282 -44.1357
12.902228 41.959 -40.5672
12.995723 40.620 -33.7892
13.089895 39.657 -23.6777
13.184750 39.432 -11.3311
13.280292 39.887 1.7582
13.376526 40.706 12.0617
13.473458 41.624 18.2937
13.571093 42.640 21.3602
13.669434 43.717 22.3425
13.768489 44.690 21.9315
13.868261 45.454 20.3940
13.968756 46.056 17.8477
14.069979 46.530 14.8259
14.171936 46.892 11.5919
14.274632 47.136 7.7097
14.378072 47.270 3.4617
14.482261 47.306 -0.7524
14.587206 47.244 -5.3216
14.692910 47.082 -10.3167
14.799381 46.821 -15.3058
14.906624 46.463 -20.4153
15.014643 46.003 -26.0312
15.123446 45.430 -31.7576
15.233036 44.743 -37.4958
15.343421 43.934 -43.8185
15.454606 42.975 -50.4298
15.566596 41.853 -57.0748
15.679398 40.555 -64.4825
15.793018 38.982 -72.5834
15.907460 36.965 -81.0842
16.022732 34.583 -91.4419
16.138840 32.348 -105.4600
16.255788 30.640 -128.6245
16.373585 29.608 159.0266
16.492234 29.790 100.8404
16.611744 31.495 78.2689
16.732119 33.839 63.6086
16.853367 35.803 52.3893
16.975494 37.249 41.1456
17.098505 38.417 30.5530
17.222408 39.420 20.7539
17.347209 40.254 10.4416
17.472914 40.956 0.6695
17.599530 41.555 -8.8019
17.727063 42.043 -18.5876
17.855521 42.429 -27.7026
17.984909 42.713 -37.0371
18.115235 42.891 -46.3897
18.246506 42.957 -55.2990
18.378727 42.910 -64.8001
18.511907 42.742 -74.2012
18.646052 42.445 -84.0487
18.781169 42.032 -94.8306
18.917265 41.514 -106.1744
19.054347 40.910 -119.5934
19.192423 40.387 -134.9008
19.331499 40.021 -153.0752
19.471583 39.962 -173.8801
19.612682 40.421 165.0404
19.754804 41.326 145.1848
19.897956 42.452 128.7175
20.042144 43.731 114.9053
20.187378 45.010 103.5803
20.333664 46.189 93.8726
20.481010 47.270 85.3436
20.629424 48.229 77.7015
20.778913 49.068 70.5271
20.929486 49.787 63.8738
21.081150 50.384 57.3099
21.233912 50.856 51.0750
21.387782 51.201 44.7450
21.542767 51.410 38.5831
21.698874 51.475 32.3064
21.856113 51.381 26.0045
22.014492 51.113 19.6924
22.174018 50.649 13.1522
22.334700 49.956 6.7292
22.496546 48.995 -0.0906
22.659566 47.694 -6.7001
22.823766 45.971 -13.8524
22.989157 43.557 -20.8594
23.155745 40.673 -28.8840
23.323542 38.395 -40.1835
23.492554 37.503 149.7084
23.662790 38.786 137.1365
23.834261 41.166 129.0607
24.006973 42.770 123.0292
24.180938 43.620 117.0886
24.356163 43.882 113.1364
24.532658 43.628 110.4027
24.710431 42.973 111.5212
24.889493 42.275 116.9490
25.069853 42.089 128.4840
25.251519 42.648 141.0790
25.434502 44.025 149.3186
25.618811 45.536 151.2759
25.804456 46.811 148.3430
25.991445 47.705 142.5161
26.179790 48.176 133.8590
26.369500 48.230 123.7039
26.560584 47.876 111.0781
26.753053 47.128 96.3940
26.946917 46.047 78.6604
27.142185 44.695 56.2234
27.338869 43.229 30.7798
27.536977 41.736 1.2314
27.736522 40.330 -21.6310
27.937512 40.230 -32.4060
28.139959 42.781 75.6163
28.343872 46.567 76.3074
28.549264 50.504 65.8326
28.756143 53.774 52.5676
28.964522 56.438 40.1359
29.174411 58.583 27.4039
29.385821 60.282 15.2467
29.598763 61.564 3.2429
29.813248 62.459 -8.5985
30.029287 62.965 -19.6887
30.246891 63.072 -30.7289
30.466073 62.748 -40.5801
30.686842 61.937 -48.9781
30.909212 60.596 -54.9539
31.133193 58.769 -54.4442
31.358797 57.405 -41.6233
31.586035 57.651 -14.5959
31.814921 59.605 0.4785
32.045465 61.923 1.9304
32.277680 63.775 -3.3109
32.511577 65.074 -11.7240
32.747169 65.880 -21.3427
32.984469 66.232 -31.9348
33.223488 66.155 -42.9893
33.464239 65.643 -53.7767
33.706735 64.660 -64.3940
33.950987 63.149 -74.3733
34.197010 60.986 -82.0505
34.444816 58.201 -84.0824
34.694417 55.844 -60.8198
34.945827 56.144 1.5096
35.199059 58.448 13.3101
35.454126 60.866 9.9677
35.711041 62.673 2.8893
35.969818 63.970 -5.4508
36.230470 64.900 -14.0305
36.493011 65.546 -22.5923
36.757455 65.960 -31.0612
37.023814 66.174 -39.3893
37.292104 66.201 -47.5011
37.562338 66.037 -55.2610
37.834530 65.671 -62.5544
38.108695 65.087 -69.1848
38.384846 64.268 -74.8088
38.662999 63.205 -78.8434
38.943167 61.915 -80.4623
39.225365 60.488 -78.6219
39.509608 59.144 -72.2416
39.795911 58.206 -61.4294
40.084289 57.933 -48.9594
40.374756 58.267 -38.3420
40.667328 58.893 -30.5602
40.962020 59.595 -24.7205
41.258848 60.315 -19.8712
41.557827 61.070 -15.5948
41.858972 61.882 -11.9790
42.162299 62.740 -9.3450
42.467824 63.601 -7.9360
42.775564 64.409 -7.7539
43.085533 65.121 -8.5818
43.397749 65.718 -10.0964
43.712227 66.204 -11.9833
44.028983 66.602 -14.0305
44.348036 66.939 -16.1689
44.669400 67.233 -18.4535
44.993093 67.489 -20.9934
45.319131 67.695 -23.8613
45.647532 67.830 -27.0298
45.978313 67.879 -30.3619
46.311491 67.834 -33.6492
46.647083 67.702 -36.6682
46.985107 67.501 -39.2327
47.325581 67.256 -41.2247
47.668521 66.991 -42.6033
48.013947 66.730 -43.3994
48.361876 66.489 -43.7184
48.712326 66.270 -43.7345
49.065315 66.059 -43.6315
49.420863 65.817 -43.4709
49.778987 65.502 -43.0526
50.139706 65.097 -41.8796
50.503039 64.636 -39.3236
50.869005 64.214 -35.0127
51.237623 63.939 -29.2428
51.608912 63.866 -22.7302
51.982891 64.001 -15.6490
52.359580 64.428 -7.4237
52.739000 65.318 1.6868
53.121168 66.693 9.1365
53.506106 68.295 12.2640
53.893833 69.797 10.8418
54.284370 70.984 6.1515
54.677737 71.771 -0.2997
55.073955 72.152 -7.1802
55.473043 72.179 -13.3574
55.875024 71.956 -17.9393
56.279917 71.636 -20.4747
56.687745 71.379 -21.2487
57.098527 71.275 -21.3206
57.512287 71.287 -21.7612
57.929045 71.313 -22.9188
58.348822 71.272 -24.5139
58.771642 71.129 -26.0676
59.197525 70.890 -27.2340
59.626495 70.565 -27.8446
60.058573 70.160 -27.7228
60.493782 69.690 -26.4866
60.932145 69.219 -23.6077
61.373685 68.866 -18.8372
61.818424 68.764 -12.7814
62.266386 68.951 -6.8179
62.717593 69.344 -2.0065
63.172071 69.821 1.4907
63.629842 70.303 4.0785
64.090930 70.765 6.1544
64.555359 71.210 7.9241
65.023154 71.642 9.4470
65.494339 72.063 10.7520
65.968938 72.474 11.8776
66.446976 72.877 12.8513
66.928478 73.272 13.6709
67.413469 73.656 14.3052
67.901975 74.016 14.7164
68.394021 74.333 14.9093
68.889632 74.583 15.0077
69.388835 74.754 15.3126
69.891655 74.859 16.2080
70.398118 74.941 18.0688
70.908252 75.067 21.0813
71.422083 75.321 25.2277
71.939636 75.779 30.2578
72.460941 76.499 35.5665
72.986023 77.464 40.1959
73.514909 78.582 43.2701
74.047629 79.738 44.6056
74.584208 80.861 44.6450
75.124676 81.948 43.9956
75.669061 83.036 42.9071
76.217390 84.147 41.1040
76.769692 85.252 38.0875
77.325997 86.280 33.6002
77.886333 87.159 27.7804
78.450730 87.844 21.0524
79.019216 88.318 13.8838
79.591822 88.589 6.7358
80.168577 88.677 -0.0166
80.749512 88.621 -6.0494
81.334656 88.479 -11.1290
81.924040 88.317 -15.3103
82.517696 88.184 -19.0457
83.115653 88.065 -22.9948
83.717943 87.880 -27.5294
84.324598 87.537 -32.3340
84.935649 86.994 -36.5496
85.551128 86.291 -39.1987
86.171066 85.551 -39.7545
86.795497 84.916 -38.6412
87.424453 84.453 -36.9744
88.057967 84.123 -35.5369
88.696071 83.854 -34.2239
89.338800 83.637 -32.3263
89.986185 83.563 -29.2703
90.638262 83.761 -25.4934
91.295065 84.265 -22.5674
91.956626 84.945 -21.9517
92.622982 85.607 -23.9181
93.294166 86.106 -27.7435
93.970214 86.397 -32.3517
94.651161 86.519 -36.8622
95.337042 86.559 -41.0287
96.027894 86.580 -45.3292
96.723752 86.570 -50.4612
97.424652 86.466 -56.7115
98.130631 86.202 -63.8438
98.841726 85.754 -71.4199
99.557974 85.136 -79.1738
100.279412 84.374 -87.1396
101.006078 83.491 -95.4342
101.738010 82.522 -104.1101
102.475245 81.550 -113.5304
103.217823 80.678 -124.6357
103.965782 79.977 -138.1985
104.719161 79.536 -153.9672
105.477999 79.491 -170.8120
106.242336 79.913 172.6218
107.012212 80.706 157.3569
107.787666 81.680 143.7639
108.568740 82.657 131.6887
109.355474 83.516 121.0068
110.147909 84.217 111.8394
110.946086 84.781 104.2844
111.750047 85.249 98.2256
112.559834 85.661 93.4188
113.375489 86.047 89.5924
114.197055 86.423 86.4456
115.024574 86.789 83.6365
115.858089 87.119 80.9164
116.697645 87.386 78.2805
117.543284 87.568 75.8461
118.395051 87.652 73.7697
119.252990 87.637 72.3799
120.117147 87.558 72.1918
120.987565 87.496 73.5746
121.864291 87.561 76.4604
122.747370 87.867 80.6576
123.636848 88.512 85.4115
124.532771 89.463 88.9678
125.435187 90.548 89.9440
126.344142 91.568 88.2277
127.259684 92.409 84.8485
128.181860 93.060 80.9113
129.110718 93.546 76.6974
130.046308 93.865 72.2401
130.988677 94.011 67.8547
131.937875 93.997 63.8733
132.893951 93.841 60.4957
133.856956 93.555 57.8276
134.826938 93.156 56.3003
135.803950 92.715 56.6610
136.788041 92.370 59.1946
137.779264 92.258 63.1771
138.777669 92.427 67.2554
139.783309 92.854 70.9958
140.796237 93.521 74.2257
141.816504 94.348 75.6260
142.844165 95.170 74.4329
143.879273 95.850 71.3251
144.921881 96.331 67.1212
145.972045 96.594 62.4484
147.029819 96.661 58.0012
148.095257 96.577 54.0646
149.168417 96.376 50.6263
150.249353 96.076 47.6263
151.338121 95.670 44.9850
152.434780 95.138 42.8700
153.539385 94.474 41.8156
154.651995 93.741 43.0439
155.772667 93.142 47.4459
156.901460 92.903 53.5537
158.038432 93.035 58.4242
159.183644 93.342 61.0377
160.337154 93.657 62.1854
161.499023 93.934 62.9174
162.669312 94.209 63.6055
163.848081 94.476 63.3833
165.035392 94.660 62.0618
166.231306 94.715 60.4360
167.435887 94.654 59.1097
168.649196 94.532 58.4220
169.871298 94.411 58.3176
171.102255 94.312 57.9951
172.342133 94.152 56.5598
173.590995 93.806 54.5234
174.848907 93.245 53.7218
176.115934 92.585 55.4155
177.392143 92.010 59.3827
178.677599 91.680 64.9639
179.972371 91.683 70.9155
181.276525 91.951 75.3220
182.590129 92.312 77.5946
183.913252 92.637 78.5485
185.245964 92.896 79.0887
186.588332 93.130 79.6337
187.940428 93.400 80.2520
189.302322 93.739 80.3643
190.674085 94.092 78.8853
192.055788 94.309 75.1447
193.447503 94.243 69.9681
194.849303 93.860 65.2323
196.261262 93.257 62.1835
197.683452 92.561 60.3800
199.115948 91.798 58.5675
200.558824 90.880 56.3948
202.012156 89.685 54.5773
203.476019 88.154 54.9882
204.950490 86.454 61.7841
206.435646 85.283 79.0270
207.931564 85.445 98.3937
209.438322 86.496 106.3279
210.955998 87.438 104.6843
212.484672 87.820 99.2036
214.024424 87.567 93.1174
215.575333 86.710 88.0112
217.137481 85.289 85.2500
218.710948 83.395 87.5195
220.295818 81.385 100.2178
221.892172 80.217 124.8530
223.500094 80.777 149.3093
225.119668 82.546 165.3320
226.750978 84.462 170.0723
228.394109 85.901 166.2332
230.049147 86.642 158.2419
231.716178 86.662 149.3286
233.395289 86.000 141.0969
235.086567 84.662 134.1395
236.790102 82.694 131.3530
238.505980 80.916 150.3845
240.234293 81.465 -150.9731
241.975130 83.765 -139.2094
243.728581 85.749 -146.1305
245.494739 86.851 -157.8767
247.273695 87.072 -170.4879
249.065542 86.513 177.6565
250.870374 85.260 166.5834
252.688284 83.413 154.5870
254.519367 81.506 135.3397
256.363720 81.361 8.2498
258.221437 83.374 -46.8585
260.092616 85.422 -67.0466
261.977354 86.642 -82.5964
263.875750 87.055 -93.9414
265.787903 86.866 -100.7969
267.713911 86.274 -103.5234
269.653877 85.535 -100.9194
271.607900 85.249 -89.2427
273.576083 86.058 -72.2942
275.558528 87.560 -64.1360
277.555338 88.904 -65.3889
279.566619 89.754 -69.7241
281.592474 90.216 -72.6892
283.633009 90.565 -73.0732
285.688331 90.941 -73.4209
287.758546 91.241 -75.6030
289.843763 91.377 -77.9885
291.944090 91.413 -79.4004
294.059638 91.434 -80.5410
296.190515 91.411 -82.9050
298.336833 91.198 -87.0168
300.498705 90.663 -91.5774
302.676243 89.799 -94.7402
304.869559 88.729 -95.3271
307.078770 87.609 -94.5210
309.303989 86.401 -95.7075
311.545334 84.802 -99.1628
313.802919 82.561 -100.4404
316.076865 80.174 -81.2380
318.367288 79.954 -5.2762
320.674309 82.305 17.6877
322.998047 84.891 19.8571
325.338624 86.943 16.9138
327.696162 88.426 11.5887
330.070783 89.359 4.7097
332.462612 89.756 -2.6398
334.871773 89.666 -8.9414
337.298392 89.249 -12.2072
339.742595 88.806 -11.4978
342.204510 88.583 -9.6976
344.684265 88.481 -10.7034
347.181989 88.191 -14.4871
349.697813 87.545 -18.0222
352.231868 86.659 -18.3339
354.784285 85.760 -17.1622
357.355198 84.797 -18.7046
359.944741 83.485 -20.7808
362.553049 81.867 -15.4340
365.180258 80.694 0.9904
367.826505 80.618 13.1519
370.491927 81.033 13.2743
373.176665 81.133 6.4167
375.880856 80.731 -2.4415
378.604644 79.933 -14.3511
381.348169 78.750 -31.5417
384.111575 77.317 -53.5631
386.895006 76.282 -79.8330
389.698607 76.397 -106.3557
392.522524 77.360 -128.7102
395.366904 78.337 -146.3157
398.231895 79.045 -157.8582
401.117648 79.676 -162.9932
404.024312 80.310 -166.6265
406.952038 80.732 -171.7710
409.900981 80.839 -175.8813
412.871292 80.671 -179.2183
415.863128 80.076 175.5305
418.876643 78.795 171.1675
421.911996 77.029 176.5137
424.969344 76.305 -151.7231
428.048847 78.069 -108.9358
431.150666 80.510 -102.8374
434.274961 82.116 -111.7427
437.421897 82.677 -122.1560
440.591636 82.453 -128.7451
443.784345 81.851 -129.4819
447.000189 81.399 -124.0422
450.239337 81.365 -119.3550
453.501956 81.356 -120.9207
456.788219 80.874 -125.0056
460.098294 79.858 -125.5352
463.432356 78.666 -119.5149
466.790578 77.748 -111.0615
470.173135 77.097 -106.5801
473.580203 76.271 -106.0737
477.011961 74.934 -104.8320
480.468586 73.308 -94.1052
483.950259 72.570 -63.6233
487.457163 73.466 -40.9463
490.989478 74.769 -38.4604
494.547390 75.517 -43.4761
498.131084 75.421 -51.3932
501.740748 74.587 -55.8835
505.376568 73.494 -55.7075
509.038735 72.349 -60.3696
512.727439 70.676 -69.8381
516.442874 68.257 -70.8394
520.185232 65.968 -62.2819
523.954708 64.985 -70.1328
527.751500 65.234 -91.0591
531.575805 67.040 -96.4424
535.427822 69.911 -100.4573
539.307753 72.303 -120.1179
543.215800 73.773 -139.8892
547.152165 74.450 -155.2915
551.117055 74.626 -164.9121
555.110677 74.777 -167.5127
559.133237 75.032 -171.6816
563.184947 74.638 174.8672
567.266018 72.900 162.0605
571.376661 69.960 165.6304
575.517092 67.517 -133.3828
579.687526 68.150 -70.5105
583.888181 70.301 -66.8221
588.119275 72.890 -58.4041
592.381030 76.113 -36.8405
596.673667 79.188 -30.8524
600.997410 81.381 -41.1202
605.352485 82.562 -55.5515
609.739119 82.749 -71.1714
614.157540 81.857 -86.5776
618.607979 79.909 -92.8684
623.090667 77.914 -60.1351
627.605839 77.771 -31.6642
632.153730 78.872 -28.7478
636.734576 79.913 -30.1602
641.348617 80.866 -30.3517
645.996094 81.937 -31.7202
650.677248 82.919 -39.1858
655.392323 83.281 -54.4562
660.141566 82.636 -72.4067
664.925224 81.130 -84.6084
669.743546 79.615 -88.8955
674.596784 78.974 -95.3730
679.485191 78.844 -111.0879
684.409020 78.232 -132.7700
689.368530 76.599 -151.5669
694.363979 74.057 -158.6199
699.395626 71.295 -151.9087
704.463736 69.928 -126.6699
709.568570 71.722 -86.0254
714.710396 75.075 -63.5171
719.889483 78.207 -61.6561
725.106099 80.714 -66.2908
730.360516 82.543 -74.2417
735.653010 83.725 -83.4104
740.983855 84.335 -92.2781
746.353329 84.508 -99.8228
751.761713 84.301 -107.2065
757.209288 83.559 -115.7520
762.696339 82.085 -122.3379
768.223151 79.999 -120.0815
773.790013 78.243 -98.7625
779.397214 78.291 -74.4558
785.045047 79.480 -69.3081
790.733808 80.233 -77.4331
796.463791 80.088 -87.8723
802.235296 79.349 -96.4585
808.048623 78.274 -107.2517
813.904077 76.641 -122.9741
819.801961 74.117 -138.6650
825.742584 71.428 -147.4097
831.726255 71.533 -9.0011
837.753287 74.241 -13.4470
843.823992 76.790 -40.3280
849.938689 78.558 -65.1941
856.097695 79.553 -87.2729
862.301332 79.869 -105.6218
868.549922 79.714 -119.8257
874.843793 79.275 -130.4817
881.183272 78.494 -142.0464
887.568689 76.932 -150.7578
894.000378 74.861 -140.5029
900.478673 73.464 -128.2322
907.003913 72.967 -125.3474
913.576437 72.801 -123.3394
920.196588 73.443 -109.1401
926.864712 74.843 -115.1299
933.581156 76.535 -129.8101
940.346270 78.721 -145.0054
947.160407 80.867 -167.2305
954.023921 82.301 165.0903
960.937172 82.850 136.7656
967.900519 82.420 108.3413
974.914325 80.773 81.4802
981.978956 77.952 58.0549
989.094780 74.486 23.5989
996.262169 71.469 -111.0044
1003.481495 70.184 -147.8701
1010.753136 70.002 -159.8093
1018.077470 69.896 -165.4067
1025.454879 70.119 -125.5198
1032.885748 70.798 -107.9595
1040.370463 71.167 -123.0784
1047.909417 71.647 -148.6445
1055.503000 72.544 146.7964
1063.151610 73.348 75.2598
1070.855645 73.733 41.6326
1078.615506 73.758 26.2727
1086.431599 73.458 12.6501
1094.304330 73.044 36.5710
1102.234110 73.656 113.4817
1110.221353 74.373 101.6780
1118.266475 73.996 92.6865
1126.369895 72.722 101.2305
1134.532035 72.216 138.8540
1142.753322 73.588 170.4709
1151.034184 75.243 177.5154
1159.375052 76.054 177.3271
1167.776361 76.270 179.8857
1176.238550 75.708 171.9209
1184.762060 74.008 163.5000
1193.347334 71.819 -121.0991
1201.994821 70.426 -85.0825
1210.704971 70.182 -68.0530
1219.478238 69.998 -66.6919
1228.315080 69.143 -68.6416
1237.215957 68.402 -26.4333
1246.181334 68.655 36.6365
1255.211678 68.851 27.4548
1264.307459 69.077 16.6177
1273.469152 70.357 170.4546
1282.697235 71.508 152.2983
1291.992188 71.728 153.0205
1301.354495 72.282 -175.0273
1310.784647 73.061 -175.1047
1320.283132 72.972 172.4299
1329.850448 72.667 144.8948
1339.487093 73.640 -10.0588
1349.193569 75.472 -34.0112
1358.970381 77.026 -42.2729
1368.818041 78.028 -47.8574
1378.737061 78.139 -60.2485
1388.727958 77.319 -79.4275
1398.791253 76.263 -112.8286
1408.927471 76.193 -162.1487
1419.137140 77.020 162.4592
1429.420793 77.421 141.4084
1439.778965 76.684 126.6389
1450.212197 75.235 119.3882
1460.721033 75.627 -98.5483
1471.306019 78.441 -88.3843
1481.967709 80.931 -92.5601
1492.706658 81.999 -101.6475
1503.523426 81.600 -109.0093
1514.418576 79.892 -111.2075
1525.392678 77.098 -102.5623
1536.446302 73.931 -74.8074
1547.580025 72.276 -21.5835
1558.794428 73.128 72.9922
1570.090095 74.567 83.7622
1581.467615 75.194 88.1052
1592.927581 75.726 125.4199
1604.470591 76.426 136.5349
1616.097246 76.139 128.5923
1627.808153 75.245 -177.0938
1639.603922 75.640 -92.8843
1651.485168 76.669 -91.0625
1663.452510 76.995 -87.4741
1675.506573 77.037 -69.9556
1687.647984 78.179 7.8296
1699.877377 79.532 14.0239
1712.195390 79.527 12.3375
1724.602663 78.410 21.1541
1737.099845 77.145 29.5231
1749.687587 77.022 14.9827
1762.366544 78.567 -155.6599
1775.137379 79.867 -173.3809
1788.000756 79.498 173.1812
1800.957346 77.750 177.8838
1814.007826 76.979 -66.8940
1827.152874 78.183 -43.6958
1840.393177 79.129 -40.2932
1853.729425 79.441 -22.5736
1867.162312 79.428 -5.5844
1880.692540 78.377 -6.2155
1894.320813 76.254 39.0251
1908.047843 74.690 110.8593
1921.874344 75.413 166.1311
1935.801038 77.022 -170.2358
1949.828650 77.303 -167.6031
1963.957912 76.906 -117.6489
1978.189561 77.745 -63.0332
1992.524338 78.813 -53.8989
2006.962991 78.852 -51.7664
2021.506272 78.307 -8.1716
2036.154940 78.040 47.7593
2050.909758 77.460 62.1837
2065.771495 77.061 102.0765
