* Measurement data measured by REW V5.31
* Source: Scarlett 2i4 USB, MICROPHONE, R, volume: no control. Timing signal peak level -37.1 dBFS, measurement signal peak level -31.2 dBFS
* Format: 512k Log Swept Sine, 1 sweep at -18.0 dBFS using an acoustic timing reference
* Dated: Apr 24, 2024 6:06:02 PM
* REW Settings:
*  C-weighting compensation: Off
*  Target level: 75.0 dB
* Note: ; Delay -0.0123 ms (-4.2 mm, -0.17 in) using estimated IR delay relative to Acoustic reference played from SPEAKER L with no timing offset
* Measurement: empty-p1-l
* Smoothing: 1/48 octave
* Frequency Step: 96 ppo
* Start Frequency: 10.093689 Hz
*
* Freq(Hz) SPL(dB) Phase(degrees)
10.093689 8.998 -120.1521
10.166832 8.468 -125.5311
10.240505 7.815 -131.6665
10.314712 7.133 -138.4444
10.389457 6.408 -145.5490
10.464743 5.487 -152.6135
10.540575 4.172 -160.9891
10.616956 2.671 -171.7163
10.693891 1.286 174.4370
10.771383 0.332 157.3489
10.849437 -0.077 134.0187
10.928057 -0.053 101.1888
11.007246 0.290 69.9639
11.087009 0.880 48.9982
11.167350 1.749 33.7547
11.248273 2.919 20.2000
11.329783 4.160 8.9945
11.411883 5.220 -0.0177
11.494578 5.966 -8.0996
11.577873 6.483 -17.1892
11.661771 6.813 -26.3000
11.746277 6.972 -34.6501
11.831395 6.942 -42.6960
11.917130 6.701 -52.7206
12.003487 6.332 -64.0350
12.090469 5.933 -75.7177
12.178081 5.503 -89.0137
12.266329 5.000 -108.3528
12.355216 4.696 -132.9419
12.444747 4.967 -159.2889
12.534926 6.029 173.7295
12.625760 7.653 150.9327
12.717251 9.442 134.3287
12.809406 11.118 121.1418
12.902228 12.715 109.3986
12.995723 14.259 99.3605
13.089895 15.687 90.6325
13.184750 16.956 82.3665
13.280292 18.083 74.2654
13.376526 19.099 66.7463
13.473458 20.026 59.7628
13.571093 20.860 52.6756
13.669434 21.602 45.6865
13.768489 22.265 39.1364
13.868261 22.856 32.8130
13.968756 23.370 26.2960
14.069979 23.810 20.0314
14.171936 24.181 14.2311
14.274632 24.482 8.2881
14.378072 24.712 2.4362
14.482261 24.872 -2.9017
14.587206 24.962 -8.1024
14.692910 24.980 -13.2543
14.799381 24.927 -17.9149
14.906624 24.800 -22.0825
15.014643 24.602 -26.0367
15.123446 24.341 -29.4310
15.233036 24.016 -31.9930
15.343421 23.634 -33.8848
15.454606 23.247 -34.9775
15.566596 22.877 -34.9635
15.679398 22.537 -33.7380
15.793018 22.320 -31.7012
15.907460 22.299 -29.0181
16.022732 22.458 -25.6928
16.138840 22.776 -22.7371
16.255788 23.260 -20.5319
16.373585 23.871 -18.9315
16.492234 24.508 -18.2981
16.611744 25.136 -18.6078
16.732119 25.746 -19.5580
16.853367 26.296 -20.9943
16.975494 26.778 -22.9721
17.098505 27.192 -25.2209
17.222408 27.534 -27.5163
17.347209 27.804 -30.0305
17.472914 28.011 -32.4898
17.599530 28.157 -34.7714
17.727063 28.248 -37.0066
17.855521 28.297 -38.9668
17.984909 28.309 -40.6541
18.115235 28.296 -42.0996
18.246506 28.274 -43.2227
18.378727 28.247 -44.0317
18.511907 28.228 -44.6141
18.646052 28.226 -44.9569
18.781169 28.242 -45.0987
18.917265 28.278 -45.1536
19.054347 28.333 -45.0941
19.192423 28.402 -44.9446
19.331499 28.481 -44.7388
19.471583 28.573 -44.4219
19.612682 28.679 -43.9399
19.754804 28.803 -43.3111
19.897956 28.966 -42.4923
20.042144 29.173 -41.4652
20.187378 29.445 -40.4013
20.333664 29.795 -39.3131
20.481010 30.220 -38.3884
20.629424 30.715 -37.8823
20.778913 31.270 -37.7327
20.929486 31.850 -38.2450
21.081150 32.445 -39.2737
21.233912 33.021 -40.8663
21.387782 33.563 -43.0018
21.542767 34.054 -45.4719
21.698874 34.480 -48.3159
21.856113 34.836 -51.3033
22.014492 35.115 -54.3436
22.174018 35.319 -57.3591
22.334700 35.451 -60.0752
22.496546 35.520 -62.5432
22.659566 35.546 -64.4193
22.823766 35.546 -65.7766
22.989157 35.563 -66.4244
23.155745 35.621 -66.4180
23.323542 35.771 -65.9442
23.492554 36.023 -65.0861
23.662790 36.389 -64.3494
23.834261 36.853 -63.7727
24.006973 37.376 -63.7556
24.180938 37.931 -64.1913
24.356163 38.475 -65.1449
24.532658 38.995 -66.4529
24.710431 39.471 -67.9655
24.889493 39.908 -69.5602
25.069853 40.313 -71.0522
25.251519 40.705 -72.4135
25.434502 41.105 -73.5360
25.618811 41.536 -74.5685
25.804456 42.013 -75.4947
25.991445 42.542 -76.6412
26.179790 43.117 -78.0047
26.369500 43.716 -79.8883
26.560584 44.320 -82.2180
26.753053 44.901 -85.1133
26.946917 45.439 -88.4247
27.142185 45.918 -92.1616
27.338869 46.330 -96.1077
27.536977 46.670 -100.2682
27.736522 46.942 -104.4237
27.937512 47.152 -108.5698
28.139959 47.309 -112.6032
28.343872 47.428 -116.5007
28.549264 47.518 -120.2769
28.756143 47.589 -123.9641
28.964522 47.643 -127.6284
29.174411 47.678 -131.3435
29.385821 47.680 -135.1455
29.598763 47.637 -139.0530
29.813248 47.526 -143.0364
30.029287 47.330 -146.9235
30.246891 47.037 -150.6550
30.466073 46.638 -153.8628
30.686842 46.145 -156.3101
30.909212 45.581 -157.6443
31.133193 45.017 -157.4873
31.358797 44.550 -155.8013
31.586035 44.283 -152.6782
31.814921 44.308 -149.0880
32.045465 44.600 -145.9329
32.277680 45.094 -143.8684
32.511577 45.663 -143.2161
32.747169 46.229 -143.6951
32.984469 46.744 -145.0261
33.223488 47.187 -146.8662
33.464239 47.566 -148.8965
33.706735 47.894 -150.9841
33.950987 48.192 -153.0200
34.197010 48.481 -154.9897
34.444816 48.773 -156.9779
34.694417 49.072 -159.0618
34.945827 49.374 -161.3409
35.199059 49.668 -163.9102
35.454126 49.936 -166.7832
35.711041 50.162 -169.9481
35.969818 50.329 -173.3694
36.230470 50.425 -176.9298
36.493011 50.440 179.5042
36.757455 50.373 176.0603
37.023814 50.228 172.8827
37.292104 50.016 170.1376
37.562338 49.759 167.9431
37.834530 49.481 166.3425
38.108695 49.208 165.3342
38.384846 48.959 164.8616
38.662999 48.750 164.8215
38.943167 48.584 165.1165
39.225365 48.464 165.6997
39.509608 48.390 166.5444
39.795911 48.367 167.6304
40.084289 48.398 168.9458
40.374756 48.485 170.5049
40.667328 48.637 172.3977
40.962020 48.886 174.7815
41.258848 49.289 177.7107
41.557827 49.915 -179.0916
41.858972 50.792 -176.3170
42.162299 51.884 -174.8160
42.467824 53.092 -175.1719
42.775564 54.302 -177.5061
43.085533 55.425 178.4138
43.397749 56.407 172.9779
43.712227 57.223 166.5991
44.028983 57.868 159.6432
44.348036 58.346 152.4036
44.669400 58.670 145.1089
44.993093 58.854 137.9374
45.319131 58.913 131.0323
45.647532 58.864 124.5175
45.978313 58.726 118.5050
46.311491 58.524 113.0903
46.647083 58.287 108.3263
46.985107 58.051 104.1847
47.325581 57.847 100.5291
47.668521 57.689 97.1379
48.013947 57.574 93.7930
48.361876 57.481 90.3828
48.712326 57.391 86.9519
49.065315 57.300 83.6538
49.420863 57.230 80.6313
49.778987 57.219 77.8778
50.139706 57.301 75.1711
50.503039 57.484 72.1587
50.869005 57.745 68.5349
51.237623 58.048 64.1737
51.608912 58.365 59.1093
51.982891 58.691 53.4001
52.359580 59.033 46.9944
52.739000 59.392 39.6892
53.121168 59.744 31.2148
53.506106 60.044 21.3772
53.893833 60.232 10.1299
54.284370 60.254 -2.4174
54.677737 60.065 -16.0200
55.073955 59.636 -30.3495
55.473043 58.957 -45.0276
55.875024 58.036 -59.6583
56.279917 56.905 -73.8915
56.687745 55.629 -87.3842
57.098527 54.312 -99.9587
57.512287 53.090 -111.7557
57.929045 52.096 -123.2037
58.348822 51.416 -134.7681
58.771642 51.066 -146.7606
59.197525 51.019 -159.1970
59.626495 51.229 -171.9691
60.058573 51.631 174.9701
60.493782 52.135 161.5853
60.932145 52.644 147.8933
61.373685 53.073 133.9827
61.818424 53.361 120.0973
62.266386 53.478 106.5898
62.717593 53.422 93.7284
63.172071 53.221 81.7928
63.629842 52.927 70.9708
64.090930 52.600 61.2206
64.555359 52.299 52.3113
65.023154 52.056 43.8889
65.494339 51.880 35.6539
65.968938 51.765 27.4348
66.446976 51.714 19.1925
66.928478 51.742 10.8965
67.413469 51.866 2.4459
67.901975 52.095 -6.2972
68.394021 52.425 -15.4303
68.889632 52.847 -24.9269
69.388835 53.366 -34.7175
69.891655 53.990 -44.8014
70.398118 54.712 -55.3456
70.908252 55.491 -66.5375
71.422083 56.261 -78.4419
71.939636 56.961 -90.8882
72.460941 57.555 -103.4911
72.986023 58.040 -115.9078
73.514909 58.439 -127.8673
74.047629 58.780 -139.3309
74.584208 59.083 -150.3831
75.124676 59.355 -161.1542
75.669061 59.598 -171.8160
76.217390 59.805 177.4037
76.769692 59.951 166.2021
77.325997 59.980 154.2876
77.886333 59.816 141.5573
78.450730 59.371 128.0815
79.019216 58.553 114.0751
79.591822 57.263 100.0034
80.168577 55.388 86.4158
80.749512 52.822 74.2609
81.334656 49.693 66.5837
81.924040 47.721 155.1871
82.517696 49.301 -154.1257
83.115653 52.211 -159.7373
83.717943 54.743 -167.8718
84.324598 56.780 -176.8639
84.935649 58.409 173.4429
85.551128 59.679 163.0839
86.171066 60.610 152.3248
86.795497 61.230 141.7302
87.424453 61.611 131.9119
88.057967 61.849 123.0839
88.696071 62.015 114.9636
89.338800 62.133 107.2074
89.986185 62.218 99.8179
90.638262 62.324 92.8767
91.295065 62.518 85.8728
91.956626 62.784 77.6208
92.622982 62.977 67.1368
93.294166 62.893 54.4187
93.970214 62.352 40.4595
94.651161 61.246 27.0070
95.337042 59.577 16.4535
96.027894 57.516 11.3752
96.723752 55.458 12.3403
97.424652 53.828 15.6975
98.130631 52.700 17.7676
98.841726 51.845 18.3357
99.557974 51.063 18.0894
100.279412 50.238 17.2819
101.006078 49.296 16.6544
101.738010 48.271 17.8613
102.475245 47.363 21.2939
103.217823 46.695 24.0312
103.965782 46.064 24.2476
104.719161 45.228 24.3258
105.477999 44.284 28.0081
106.242336 43.687 36.1027
107.012212 43.768 42.8899
107.787666 44.231 43.0093
108.568740 44.592 36.7704
109.355474 44.619 25.2227
110.147909 44.253 7.6892
110.946086 43.592 -17.8092
111.750047 43.113 -53.6436
112.559834 43.568 -94.0811
113.375489 45.026 -125.1416
114.197055 46.859 -145.7012
115.024574 48.647 -160.0479
115.858089 50.261 -171.1001
116.697645 51.660 179.4749
117.543284 52.839 171.1577
118.395051 53.835 163.8840
119.252990 54.690 157.4585
120.117147 55.439 151.8069
120.987565 56.145 147.0635
121.864291 56.874 142.9331
122.747370 57.640 138.6880
123.636848 58.408 133.9292
124.532771 59.138 128.5449
125.435187 59.775 122.3774
126.344142 60.267 115.7454
127.259684 60.630 109.5061
128.181860 60.950 104.0908
129.110718 61.310 99.1143
130.046308 61.745 94.0789
130.988677 62.246 88.2656
131.937875 62.709 80.6704
132.893951 62.980 71.2815
133.856956 62.984 61.3223
134.826938 62.786 51.9119
135.803950 62.503 42.6228
136.788041 62.116 31.6631
137.779264 61.421 18.1504
138.777669 60.179 3.0701
139.783309 58.256 -12.1775
140.796237 55.658 -28.0435
141.816504 52.747 -51.0510
142.844165 51.221 171.4553
143.879273 52.486 129.0049
144.921881 54.578 113.4294
145.972045 56.246 101.2632
147.029819 57.344 90.4609
148.095257 57.991 81.2209
149.168417 58.314 73.2104
150.249353 58.350 65.9468
151.338121 58.134 60.2920
152.434780 57.878 58.3320
153.539385 57.961 59.8794
154.651995 58.437 59.3074
155.772667 58.858 53.6655
156.901460 58.871 46.2087
158.038432 58.497 40.5686
159.183644 57.949 37.6953
160.337154 57.413 36.7085
161.499023 57.004 37.2578
162.669312 56.886 39.7715
163.848081 57.243 43.1094
165.035392 58.015 43.8767
166.231306 58.830 39.3345
167.435887 59.274 30.0532
168.649196 59.118 18.8782
169.871298 58.325 8.7539
171.102255 57.011 2.4924
172.342133 55.489 2.5134
173.590995 54.188 5.8835
174.848907 53.109 5.6812
176.115934 51.816 4.0769
177.392143 50.409 13.7485
178.677599 50.086 43.3271
179.972371 51.083 56.4353
181.276525 52.134 55.5063
182.590129 53.017 56.6682
183.913252 54.357 64.5574
185.245964 56.148 67.9595
186.588332 57.713 61.5720
187.940428 58.678 50.4751
189.302322 59.056 38.7275
190.674085 58.921 26.7241
192.055788 58.197 14.1536
193.447503 56.756 3.0635
194.849303 54.627 -3.3572
196.261262 52.457 -1.0642
197.683452 52.613 54.7949
199.115948 55.581 105.3542
200.558824 58.603 97.1521
202.012156 60.706 80.9849
203.476019 61.842 63.3594
204.950490 62.090 46.7236
206.435646 61.628 34.1802
207.931564 61.028 31.0271
209.438322 61.199 35.3965
210.955998 62.028 31.9670
212.484672 62.493 18.9072
214.024424 62.039 4.0166
215.575333 60.774 -4.0723
217.137481 59.479 0.5339
218.710948 59.038 5.8899
220.295818 59.193 3.1919
221.892172 59.240 -4.3633
223.500094 58.691 -15.5198
225.119668 57.253 -25.0239
226.750978 55.071 -23.3132
228.394109 53.086 -5.8835
230.049147 52.895 20.8840
231.716178 54.592 38.5037
233.395289 56.714 40.4563
235.086567 58.533 35.5168
236.790102 59.792 25.3113
238.505980 60.241 10.6426
240.234293 59.685 -4.8120
241.975130 58.147 -14.1768
243.728581 56.203 -8.4441
245.494739 55.159 12.8181
247.273695 55.522 23.3740
249.065542 56.409 25.2419
250.870374 57.725 31.7351
252.688284 59.513 36.8162
254.519367 61.201 32.1475
256.363720 62.391 22.1560
258.221437 63.080 11.2944
260.092616 63.297 -0.1895
261.977354 62.987 -11.6492
263.875750 62.203 -19.9675
265.787903 61.325 -22.0339
267.713911 60.936 -19.8591
269.653877 61.059 -22.4324
271.607900 60.947 -33.4060
273.576083 59.970 -47.0671
275.558528 58.183 -53.9880
277.555338 57.010 -23.3113
279.566619 58.108 18.8796
281.592474 59.730 11.4949
283.633009 60.553 -1.3357
285.688331 61.158 -2.9165
287.758546 62.444 1.6494
289.843763 64.016 -3.5667
291.944090 65.176 -15.8450
294.059638 65.671 -30.7283
296.190515 65.537 -44.5854
298.336833 64.964 -56.0547
300.498705 64.040 -66.4429
302.676243 62.711 -74.6399
304.869559 61.149 -75.0190
307.078770 60.237 -63.7905
309.303989 60.904 -51.0857
311.545334 62.571 -48.1389
313.802919 64.163 -55.8943
316.076865 65.269 -68.5840
318.367288 65.920 -82.5391
320.674309 66.153 -97.9534
322.998047 65.891 -114.5005
325.338624 65.131 -129.7256
327.696162 64.048 -142.2761
330.070783 62.825 -153.4846
332.462612 61.469 -164.5190
334.871773 59.919 -173.6033
337.298392 58.340 -177.9690
339.742595 57.132 179.8975
342.204510 56.486 176.2078
344.684265 56.330 171.1370
347.181989 56.571 164.2405
349.697813 56.996 153.2832
352.231868 57.484 140.8086
354.784285 58.118 127.5171
357.355198 58.795 111.0676
359.944741 59.247 91.4604
362.553049 59.235 69.8152
365.180258 58.595 48.3616
367.826505 57.351 30.2219
370.491927 55.657 15.5315
373.176665 53.604 4.9121
375.880856 51.719 18.2656
378.604644 51.580 48.7969
381.348169 52.890 48.9170
384.111575 54.308 42.3975
386.895006 55.784 38.5522
389.698607 57.288 31.7612
392.522524 58.438 19.3950
395.366904 58.963 4.0469
398.231895 58.802 -11.2300
401.117648 58.019 -24.0212
404.024312 56.930 -28.3833
406.952038 56.451 -23.2039
409.900981 57.169 -21.1382
412.871292 58.472 -26.9292
415.863128 59.347 -43.7651
418.876643 59.100 -66.6296
421.911996 57.646 -79.2444
424.969344 55.968 -62.2734
428.048847 55.231 -62.3179
431.150666 55.296 -68.5381
434.274961 56.244 -71.7197
437.421897 57.572 -86.1526
440.591636 58.322 -112.7568
443.784345 58.015 -146.5088
447.000189 56.565 176.4050
450.239337 54.076 138.9524
453.501956 50.930 107.1848
456.788219 48.455 91.6414
460.098294 47.974 72.8933
463.432356 47.841 46.3613
466.790578 47.212 32.8091
470.173135 47.179 40.6123
473.580203 48.196 41.4824
477.011961 49.740 39.1277
480.468586 51.824 43.0547
483.950259 54.358 51.4399
487.457163 56.430 38.1973
490.989478 57.561 18.4575
494.547390 58.018 2.4243
498.131084 58.299 -8.7776
501.740748 58.392 -22.2197
505.376568 58.099 -34.3091
509.038735 57.717 -43.0964
512.727439 57.381 -52.8843
516.442874 56.893 -64.5994
520.185232 55.977 -77.5645
523.954708 54.685 -86.9211
527.751500 53.693 -93.6824
531.575805 53.825 -55.5771
535.427822 54.951 -35.5112
539.307753 55.711 -56.2168
543.215800 55.664 -75.2368
547.152165 55.866 -78.7966
551.117055 57.659 -67.7263
555.110677 59.874 -79.3904
559.133237 61.324 -105.4109
563.184947 61.980 -134.2795
567.266018 62.021 -164.0493
571.376661 61.559 164.7451
575.517092 60.433 131.9314
579.687526 58.638 103.7561
583.888181 57.053 83.3706
588.119275 56.687 57.7942
592.381030 56.865 20.2068
596.673667 56.480 -28.7727
600.997410 55.243 -94.5908
605.352485 54.006 164.5601
609.739119 54.049 95.3660
614.157540 54.925 52.6697
618.607979 55.207 14.1963
623.090667 54.327 -17.0791
627.605839 53.921 -22.7764
632.153730 56.056 -17.2119
636.734576 58.619 -43.0381
641.348617 59.763 -86.0630
645.996094 59.301 -126.2256
650.677248 58.786 -131.8428
655.392323 59.902 -145.4585
660.141566 61.176 175.2378
664.925224 61.591 134.9922
669.743546 61.619 103.5894
674.596784 62.038 76.0605
679.485191 62.282 43.6675
684.409020 61.799 12.0337
689.368530 61.006 -15.6475
694.363979 60.442 -43.6069
699.395626 60.422 -73.2485
704.463736 60.979 -108.3960
709.568570 61.108 -154.8467
714.710396 59.812 156.3013
719.889483 57.005 126.7158
725.106099 54.097 146.9370
730.360516 54.015 149.0225
735.653010 55.579 131.0229
740.983855 56.738 110.1089
746.353329 57.696 96.5869
751.761713 59.020 90.3267
757.209288 60.204 73.4907
762.696339 60.681 52.2964
768.223151 60.434 31.2422
773.790013 59.497 12.8062
779.397214 58.199 0.1929
785.045047 57.311 11.6797
790.733808 57.659 20.6865
796.463791 58.295 8.0889
802.235296 58.259 -6.8647
808.048623 58.361 -13.3438
813.904077 59.072 -28.4292
819.801961 59.830 -52.7573
825.742584 60.218 -86.8413
831.726255 59.791 -130.8657
837.753287 58.337 -177.5415
843.823992 56.533 157.0508
849.938689 56.825 149.2568
856.097695 58.837 127.6680
862.301332 60.693 102.7134
868.549922 62.341 82.6992
874.843793 63.944 62.7954
881.183272 65.152 39.8560
887.568689 65.761 14.5200
894.000378 65.549 -11.8013
900.478673 64.731 -34.7495
907.003913 63.738 -58.2617
913.576437 62.468 -85.4121
920.196588 60.993 -117.7041
926.864712 59.333 -163.4727
933.581156 57.391 143.5713
940.346270 56.629 107.7075
947.160407 57.645 78.8228
954.023921 58.579 50.3662
960.937172 59.102 28.6597
967.900519 59.790 11.8604
974.914325 60.314 -13.1509
981.978956 60.046 -37.7778
989.094780 59.775 41.3008
996.262169 60.132 29.6606
1003.481495 61.054 15.5977
1010.753136 62.395 0.9253
1018.077470 63.210 -22.6260
1025.454879 63.216 -49.5508
1032.885748 62.232 -80.6279
1040.370463 60.090 -111.2749
1047.909417 57.548 -40.7583
1055.503000 57.204 2.6816
1063.151610 58.945 -19.2354
1070.855645 59.945 -52.1484
1078.615506 59.119 -87.5669
1086.431599 56.658 -90.5264
1094.304330 54.312 -23.1289
1102.234110 53.897 -35.8901
1110.221353 53.804 -59.8042
1118.266475 53.794 -33.6196
1126.369895 54.796 14.2764
1134.532035 55.961 -4.5908
1142.753322 57.371 -8.5181
1151.034184 59.079 -19.3066
1159.375052 60.002 -44.0283
1167.776361 59.844 -71.7017
1176.238550 58.536 -99.9468
1184.762060 56.301 -126.3364
1193.347334 54.103 -159.9692
1201.994821 53.028 121.0234
1210.704971 53.578 57.4907
1219.478238 54.965 32.8442
1228.315080 56.112 11.8652
1237.215957 56.232 -13.0562
1246.181334 55.271 -29.0640
1255.211678 54.670 -17.4116
1264.307459 55.805 14.4370
1273.469152 57.799 9.8457
1282.697235 58.838 -10.6914
1291.992188 58.711 -24.5312
1301.354495 58.538 -30.1763
1310.784647 58.885 -35.8203
1320.283132 59.891 -38.1528
1329.850448 60.824 -51.8789
1339.487093 60.782 -72.6079
1349.193569 59.559 -87.9932
1358.970381 58.113 -77.7051
1368.818041 57.696 -75.0688
1378.737061 57.122 -85.9136
1388.727958 56.691 -78.9946
1398.791253 58.102 -59.9360
1408.927471 59.820 -73.2246
1419.137140 60.412 -87.8213
1429.420793 60.475 -89.0884
1439.778965 60.071 -111.1895
1450.212197 59.263 -101.2246
1460.721033 59.426 -62.5986
1471.306019 60.287 -86.8271
1481.967709 60.254 -119.6772
1492.706658 58.521 -150.5239
1503.523426 55.747 -154.0332
1514.418576 54.466 -61.4282
1525.392678 55.092 -56.2446
1536.446302 56.939 -35.1665
1547.580025 59.382 -40.2661
1558.794428 61.297 -56.0220
1570.090095 62.391 -74.0024
1581.467615 62.990 -89.9722
1592.927581 63.522 -104.2256
1604.470591 64.036 -117.1655
1616.097246 64.509 -132.9922
1627.808153 64.379 -153.5566
1639.603922 63.605 -170.3169
1651.485168 62.509 173.0996
1663.452510 60.645 157.4746
1675.506573 58.221 143.4165
1687.647984 56.796 177.7437
1699.877377 57.853 -134.9209
1712.195390 59.537 -150.8198
1724.602663 61.336 -162.1035
1737.099845 62.780 171.6611
1749.687587 62.878 134.1606
1762.366544 61.179 97.2002
1775.137379 58.454 64.3159
1788.000756 56.247 -16.6802
1800.957346 56.015 -93.4595
1814.007826 57.552 -128.5210
1827.152874 58.806 -161.6055
1840.393177 58.780 165.9951
1853.729425 57.423 141.8052
1867.162312 55.952 131.8442
1880.692540 56.245 132.2207
1894.320813 57.436 -168.1343
1908.047843 57.913 -179.5547
1921.874344 58.426 156.5986
1935.801038 59.316 122.6025
1949.828650 59.630 71.7661
1963.957912 59.351 -88.1465
