* Measurement data measured by REW V5.31
* Source: Scarlett 2i4 USB, MICROPHONE, R, volume: no control. Timing signal peak level -36.6 dBFS, measurement signal peak level -30.9 dBFS
* Format: 512k Log Swept Sine, 1 sweep at -18.0 dBFS using an acoustic timing reference
* Dated: Apr 24, 2024 6:06:43 PM
* REW Settings:
*  C-weighting compensation: Off
*  Target level: 75.0 dB
* Note: ; Delay -0.0033 ms (-1.1 mm, -0.04 in) using estimated IR delay relative to Acoustic reference played from SPEAKER L with no timing offset
* Measurement: empty-p1-r
* Smoothing: 1/48 octave
* Frequency Step: 96 ppo
* Start Frequency: 10.093689 Hz
*
* Freq(Hz) SPL(dB) Phase(degrees)
10.093689 3.812 45.2448
10.166832 4.117 44.1517
10.240505 4.485 43.6370
10.314712 4.868 43.1619
10.389457 5.278 42.2430
10.464743 5.786 40.6252
10.540575 6.454 38.9439
10.616956 7.204 37.1327
10.693891 7.975 34.9708
10.771383 8.718 32.2610
10.849437 9.439 29.0725
10.928057 10.148 25.7085
11.007246 10.829 22.2866
11.087009 11.460 18.8153
11.167350 12.033 15.1155
11.248273 12.556 11.1402
11.329783 13.024 7.2073
11.411883 13.430 3.5259
11.494578 13.769 0.0181
11.577873 14.042 -3.7217
11.661771 14.247 -7.3580
11.746277 14.379 -10.5270
11.831395 14.430 -13.1209
11.917130 14.396 -15.6339
12.003487 14.298 -17.7716
12.090469 14.153 -19.0777
12.178081 13.950 -19.2465
12.266329 13.676 -18.4985
12.355216 13.441 -16.6798
12.444747 13.375 -13.6873
12.534926 13.529 -9.3298
12.625760 13.869 -3.9518
12.717251 14.394 1.2637
12.809406 15.127 5.2354
12.902228 16.102 8.4330
12.995723 17.223 10.5998
13.089895 18.347 11.3372
13.184750 19.394 10.7011
13.280292 20.402 9.3695
13.376526 21.354 7.4651
13.473458 22.219 4.9848
13.571093 22.991 1.9120
13.669434 23.678 -1.4652
13.768489 24.285 -4.9316
13.868261 24.809 -8.5734
13.968756 25.250 -12.5492
14.069979 25.610 -16.5026
14.171936 25.891 -20.2414
14.274632 26.090 -24.1840
14.378072 26.209 -28.1104
14.482261 26.248 -31.6375
14.587206 26.204 -35.0101
14.692910 26.080 -38.2782
14.799381 25.881 -41.0484
14.906624 25.603 -43.2000
15.014643 25.255 -44.8913
15.123446 24.877 -45.8794
15.233036 24.478 -45.8404
15.343421 24.073 -44.7402
15.454606 23.761 -42.7883
15.566596 23.612 -40.0133
15.679398 23.615 -36.3807
15.793018 23.785 -32.8616
15.907460 24.149 -29.9831
16.022732 24.674 -27.6171
16.138840 25.252 -26.2619
16.255788 25.832 -26.0189
16.373585 26.413 -26.5494
16.492234 26.938 -27.6771
16.611744 27.386 -29.4615
16.732119 27.760 -31.6775
16.853367 28.053 -33.9614
16.975494 28.260 -36.5171
17.098505 28.388 -39.1305
17.222408 28.443 -41.4649
17.347209 28.424 -43.7461
17.472914 28.350 -45.7411
17.599530 28.232 -47.2313
17.727063 28.080 -48.3318
17.855521 27.934 -48.9484
17.984909 27.803 -48.9417
18.115235 27.716 -48.4787
18.246506 27.711 -47.7455
18.378727 27.792 -46.6617
18.511907 27.957 -45.6840
18.646052 28.213 -44.9129
18.781169 28.534 -44.4041
18.917265 28.887 -44.4118
19.054347 29.264 -44.8373
19.192423 29.635 -45.6326
19.331499 29.983 -46.8284
19.471583 30.302 -48.2617
19.612682 30.581 -49.8097
19.754804 30.819 -51.5010
19.897956 31.020 -53.0721
20.042144 31.182 -54.5830
20.187378 31.319 -55.8744
20.333664 31.437 -56.8598
20.481010 31.551 -57.5596
20.629424 31.682 -57.8686
20.778913 31.839 -57.8326
20.929486 32.049 -57.5426
21.081150 32.318 -56.9857
21.233912 32.655 -56.4424
21.387782 33.064 -55.9093
21.542767 33.527 -55.6262
21.698874 34.035 -55.6573
21.856113 34.567 -56.0326
22.014492 35.101 -56.8321
22.174018 35.622 -57.9469
22.334700 36.113 -59.3748
22.496546 36.566 -61.0203
22.659566 36.973 -62.7637
22.823766 37.333 -64.5826
22.989157 37.648 -66.2826
23.155745 37.922 -67.8918
23.323542 38.170 -69.2273
23.492554 38.399 -70.3298
23.662790 38.630 -71.1166
23.834261 38.875 -71.6300
24.006973 39.154 -71.9327
24.180938 39.471 -72.0729
24.356163 39.835 -72.2117
24.532658 40.242 -72.3866
24.710431 40.686 -72.7440
24.889493 41.159 -73.2914
25.069853 41.651 -74.0912
25.251519 42.156 -75.1390
25.434502 42.667 -76.4288
25.618811 43.181 -77.9803
25.804456 43.697 -79.7622
25.991445 44.211 -81.8294
26.179790 44.721 -84.1472
26.369500 45.220 -86.7779
26.560584 45.704 -89.6837
26.753053 46.163 -92.8978
26.946917 46.592 -96.3608
27.142185 46.983 -100.0858
27.338869 47.330 -103.9696
27.536977 47.633 -108.0247
27.736522 47.888 -112.1330
27.937512 48.099 -116.2883
28.139959 48.268 -120.4379
28.343872 48.399 -124.5386
28.549264 48.497 -128.6095
28.756143 48.564 -132.6217
28.964522 48.599 -136.6010
29.174411 48.600 -140.5699
29.385821 48.558 -144.4935
29.598763 48.464 -148.3794
29.813248 48.307 -152.1541
30.029287 48.075 -155.6778
30.246891 47.764 -158.8739
30.466073 47.373 -161.4456
30.686842 46.920 -163.2081
30.909212 46.430 -163.8841
31.133193 45.970 -163.2624
31.358797 45.615 -161.3781
31.586035 45.439 -158.3904
31.814921 45.503 -155.0352
32.045465 45.789 -151.9511
32.277680 46.256 -149.6286
32.511577 46.820 -148.3589
32.747169 47.424 -148.0630
32.984469 48.032 -148.6062
33.223488 48.621 -149.8290
33.464239 49.181 -151.6007
33.706735 49.709 -153.8326
33.950987 50.200 -156.4625
34.197010 50.653 -159.4387
34.444816 51.064 -162.7003
34.694417 51.432 -166.2017
34.945827 51.760 -169.8978
35.199059 52.049 -173.7366
35.454126 52.304 -177.7074
35.711041 52.528 178.1882
35.969818 52.720 173.9362
36.230470 52.874 169.5296
36.493011 52.984 164.9905
36.757455 53.038 160.3655
37.023814 53.031 155.7267
37.292104 52.957 151.2094
37.562338 52.823 146.9918
37.834530 52.648 143.2019
38.108695 52.457 139.9297
38.384846 52.287 137.2000
38.662999 52.175 134.9104
38.943167 52.144 132.7906
39.225365 52.197 130.5461
39.509608 52.312 127.9459
39.795911 52.462 124.8595
40.084289 52.616 121.2636
40.374756 52.755 117.2183
40.667328 52.873 112.8166
40.962020 52.977 108.1061
41.258848 53.080 103.0465
41.557827 53.193 97.5141
41.858972 53.316 91.3297
42.162299 53.441 84.3005
42.467824 53.545 76.2641
42.775564 53.603 67.1194
43.085533 53.588 56.8374
43.397749 53.479 45.4577
43.712227 53.263 33.0833
44.028983 52.937 19.8574
44.348036 52.508 5.9592
44.669400 51.990 -8.3831
44.993093 51.406 -22.8775
45.319131 50.785 -37.1653
45.647532 50.161 -50.8336
45.978313 49.574 -63.4572
46.311491 49.072 -74.6674
46.647083 48.707 -84.2394
46.985107 48.529 -92.1789
47.325581 48.571 -98.7649
47.668521 48.827 -104.4785
48.013947 49.247 -109.8097
48.361876 49.756 -115.0477
48.712326 50.285 -120.1896
49.065315 50.798 -124.9988
49.420863 51.306 -129.1601
49.778987 51.856 -132.4812
50.139706 52.511 -135.0740
50.503039 53.307 -137.3716
50.869005 54.230 -139.9152
51.237623 55.236 -143.0657
51.608912 56.283 -146.9135
51.982891 57.350 -151.4274
52.359580 58.435 -156.6570
52.739000 59.526 -162.8066
53.121168 60.586 -170.1371
53.506106 61.557 -178.7973
53.893833 62.375 171.2557
54.284370 62.985 160.2322
54.677737 63.343 148.4748
55.073955 63.425 136.4072
55.473043 63.219 124.5007
55.875024 62.732 113.2506
56.279917 61.985 103.1254
56.687745 61.028 94.6208
57.098527 59.934 88.1202
57.512287 58.799 83.7340
57.929045 57.720 81.2502
58.348822 56.767 80.2662
58.771642 55.978 80.3314
59.197525 55.377 81.1077
59.626495 54.978 82.2560
60.058573 54.782 83.3356
60.493782 54.760 83.8845
60.932145 54.858 83.6062
61.373685 55.022 82.3965
61.818424 55.203 80.2539
62.266386 55.359 77.2471
62.717593 55.455 73.5059
63.172071 55.468 69.2288
63.629842 55.388 64.6540
64.090930 55.218 59.9820
64.555359 54.970 55.3978
65.023154 54.670 51.0390
65.494339 54.349 46.9509
65.968938 54.047 43.0130
66.446976 53.789 38.9189
66.928478 53.569 34.2543
67.413469 53.349 28.7195
67.901975 53.082 22.2601
68.394021 52.738 14.9939
68.889632 52.316 6.9699
69.388835 51.839 -1.9619
69.891655 51.329 -12.2357
70.398118 50.792 -24.4354
70.908252 50.227 -39.1945
71.422083 49.630 -56.9817
71.939636 49.005 -78.1554
72.460941 48.342 -102.3585
72.986023 47.581 -128.7190
73.514909 46.590 -155.5483
74.047629 45.181 178.4690
74.584208 43.271 154.0718
75.124676 41.725 131.5774
75.669061 42.860 -67.8592
76.217390 45.975 -86.4054
76.769692 48.974 -102.6522
77.325997 51.438 -117.0363
77.886333 53.487 -129.8132
78.450730 55.252 -141.5735
79.019216 56.793 -153.0032
79.591822 58.106 -164.6487
80.168577 59.159 -176.5872
80.749512 59.939 171.4619
81.334656 60.472 159.9305
81.924040 60.806 149.0314
82.517696 60.977 138.6304
83.115653 60.981 128.4775
83.717943 60.776 118.5183
84.324598 60.313 109.0491
84.935649 59.554 100.6594
85.551128 58.487 94.4199
86.171066 57.202 92.3506
86.795497 56.072 97.0518
87.424453 55.756 107.2188
88.057967 56.457 115.5117
88.696071 57.702 118.7363
89.338800 59.105 118.3162
89.986185 60.506 114.9747
90.638262 61.785 108.7375
91.295065 62.845 100.0273
91.956626 63.633 89.3519
92.622982 64.095 76.8813
93.294166 64.127 62.8368
93.970214 63.606 48.1274
94.651161 62.447 34.6144
95.337042 60.685 25.0294
96.027894 58.553 22.1293
96.723752 56.507 25.9509
97.424652 54.995 32.8135
98.130631 54.179 40.1635
98.841726 54.021 47.3081
99.557974 54.404 53.0201
100.279412 55.120 55.8236
101.006078 55.904 55.0444
101.738010 56.529 51.2870
102.475245 56.880 45.8574
103.217823 56.937 40.0276
103.965782 56.752 34.7756
104.719161 56.423 30.7780
105.477999 56.100 28.3982
106.242336 55.956 27.1393
107.012212 56.053 25.1475
107.787666 56.256 20.8635
108.568740 56.377 14.5337
109.355474 56.335 7.0995
110.147909 56.127 -1.0607
110.946086 55.754 -9.8872
111.750047 55.229 -19.3036
112.559834 54.571 -29.5366
113.375489 53.776 -40.9479
114.197055 52.853 -53.5720
115.024574 51.882 -67.6119
115.858089 50.996 -84.0159
116.697645 50.284 -103.3992
117.543284 49.809 -124.6040
118.395051 49.655 -145.2328
119.252990 49.839 -163.2141
120.117147 50.294 -177.3837
120.987565 51.014 172.6588
121.864291 52.026 165.7427
122.747370 53.230 159.4675
123.636848 54.439 152.4222
124.532771 55.529 144.6591
125.435187 56.446 136.3794
126.344142 57.153 127.7928
127.259684 57.641 119.4199
128.181860 57.934 111.6705
129.110718 58.058 104.7550
130.046308 58.053 99.0574
130.988677 57.999 94.9268
131.937875 58.000 92.1648
132.893951 58.108 89.8450
133.856956 58.277 86.9902
134.826938 58.416 83.5013
135.803950 58.481 80.1282
136.788041 58.518 77.5649
137.779264 58.585 75.4620
138.777669 58.670 73.1250
139.783309 58.728 70.7482
140.796237 58.770 68.9196
141.816504 58.843 67.5209
142.844165 58.941 65.8479
143.879273 58.997 63.6166
144.921881 58.951 61.3707
145.972045 58.859 60.7245
147.029819 58.970 63.0101
148.095257 59.543 66.6461
149.168417 60.536 68.2002
150.249353 61.682 66.2323
151.338121 62.768 61.3313
152.434780 63.695 54.3093
153.539385 64.425 45.7277
154.651995 64.925 35.7246
155.772667 65.137 24.4373
156.901460 65.001 12.4983
158.038432 64.497 0.8611
159.183644 63.667 -9.4089
160.337154 62.633 -17.4932
161.499023 61.580 -23.8804
162.669312 60.607 -30.7833
163.848081 59.588 -40.1935
165.035392 58.244 -52.4358
166.231306 56.287 -66.4742
167.435887 53.519 -80.4486
168.649196 50.084 -88.6615
169.871298 47.637 54.6895
171.102255 48.363 56.3790
172.342133 50.204 49.8463
173.590995 51.572 41.9843
174.848907 52.408 35.2552
176.115934 52.948 29.5732
177.392143 53.179 21.2764
178.677599 52.800 9.0544
179.972371 51.591 -5.0341
181.276525 49.906 -19.0950
182.590129 49.776 103.8535
183.913252 52.366 126.5651
185.245964 55.334 112.0083
186.588332 57.631 96.9963
187.940428 59.264 82.7394
189.302322 60.407 69.6089
190.674085 61.147 56.7166
192.055788 61.452 43.4807
193.447503 61.299 31.1034
194.849303 60.774 20.7651
196.261262 59.981 12.4539
197.683452 59.001 6.3463
199.115948 58.005 3.9871
200.558824 57.280 3.8124
202.012156 56.758 -0.4729
203.476019 55.939 -8.9475
204.950490 54.496 -17.4520
206.435646 52.451 -25.2693
207.931564 50.536 -31.2159
209.438322 51.434 114.6444
210.955998 54.901 119.2125
212.484672 58.151 106.8390
214.024424 60.483 90.5190
215.575333 61.951 73.8564
217.137481 62.711 58.5413
218.710948 62.947 45.9363
220.295818 62.936 37.2345
221.892172 62.903 30.3182
223.500094 62.787 22.5865
225.119668 62.481 15.6912
226.750978 62.062 10.6626
228.394109 61.576 5.9930
230.049147 60.982 2.0721
231.716178 60.267 -0.7657
233.395289 59.374 -3.1675
235.086567 58.290 -2.7312
236.790102 57.496 6.3296
238.505980 58.103 26.1554
240.234293 60.180 42.1405
241.975130 62.432 42.3375
243.728581 64.024 32.1797
245.494739 64.820 19.7891
247.273695 65.139 11.0989
249.065542 65.491 6.6974
250.870374 66.035 1.2136
252.688284 66.552 -7.0453
254.519367 66.883 -16.7472
256.363720 66.917 -28.3193
258.221437 66.460 -41.7472
260.092616 65.326 -54.7273
261.977354 63.486 -62.2311
263.875750 61.377 -56.4126
265.787903 60.260 -37.7318
267.713911 60.926 -24.0411
269.653877 62.256 -23.7477
271.607900 63.119 -32.6093
273.576083 63.305 -41.6777
275.558528 63.392 -43.6736
277.555338 64.101 -41.7351
279.566619 65.197 -47.6416
281.592474 65.898 -62.3701
283.633009 65.702 -81.6171
285.688331 64.400 -99.7767
287.758546 62.109 -108.0975
289.843763 59.640 -93.8788
291.944090 58.504 -76.7517
294.059638 58.457 -80.0259
296.190515 57.994 -90.8395
298.336833 56.870 -93.4324
300.498705 56.563 -63.6100
302.676243 57.953 -45.2067
304.869559 59.342 -54.0424
307.078770 59.802 -67.2103
309.303989 59.718 -72.3649
311.545334 60.124 -67.0288
313.802919 61.188 -67.3246
316.076865 62.077 -77.0140
318.367288 62.386 -88.4980
320.674309 62.305 -96.8937
322.998047 62.225 -101.8591
325.338624 62.361 -106.7623
327.696162 62.675 -112.8585
330.070783 63.156 -119.2560
332.462612 63.689 -128.5234
334.871773 63.914 -142.2195
337.298392 63.585 -156.5864
339.742595 62.917 -166.2219
342.204510 62.430 -172.3085
344.684265 62.243 178.9703
347.181989 62.086 168.2964
349.697813 61.894 158.1503
352.231868 61.818 148.9111
354.784285 61.954 138.7218
357.355198 62.157 125.8232
359.944741 62.133 109.7283
362.553049 61.609 92.6744
365.180258 60.678 80.2214
367.826505 59.833 72.2212
370.491927 59.355 63.7479
373.176665 59.112 53.9453
375.880856 58.855 42.4753
378.604644 58.304 29.3522
381.348169 57.292 18.0017
384.111575 56.101 13.9336
386.895006 55.549 19.0803
389.698607 55.890 19.6414
392.522524 56.270 10.9974
395.366904 56.533 6.0878
398.231895 57.129 2.7701
401.117648 57.976 -5.0403
404.024312 58.825 -15.6733
406.952038 59.456 -30.2704
409.900981 59.561 -49.0339
412.871292 58.921 -69.4717
415.863128 57.445 -87.5781
418.876643 55.324 -98.2114
421.911996 53.116 -103.3472
424.969344 51.498 -106.0698
428.048847 50.944 -112.0493
431.150666 50.762 -135.0083
434.274961 49.912 -173.4983
437.421897 48.392 95.5288
440.591636 47.227 -35.1953
443.784345 48.053 -62.8018
447.000189 50.575 -76.9663
450.239337 52.743 -108.4172
453.501956 53.844 -147.1160
456.788219 54.530 -178.9753
460.098294 55.657 156.4993
463.432356 57.158 133.1858
466.790578 58.638 110.4602
470.173135 59.791 86.9263
473.580203 60.262 61.8979
477.011961 59.974 39.8860
480.468586 59.392 25.5437
483.950259 59.233 17.2031
487.457163 59.423 4.0576
490.989478 59.275 -12.8005
494.547390 59.071 -22.7812
498.131084 59.656 -30.3560
501.740748 60.525 -50.8716
505.376568 60.778 -81.9612
509.038735 60.413 -119.6599
512.727439 59.819 -168.2715
516.442874 59.238 130.8132
520.185232 58.762 74.0015
523.954708 58.453 31.6218
527.751500 58.129 -2.6750
531.575805 57.250 -33.7036
535.427822 55.552 -59.7834
539.307753 53.526 -75.3582
543.215800 52.742 -52.5745
547.152165 53.624 -62.7214
551.117055 54.479 -111.9475
555.110677 55.456 174.9080
559.133237 57.405 108.6165
563.184947 59.683 62.9883
567.266018 61.244 22.4221
571.376661 61.575 -16.8242
575.517092 60.702 -51.5637
579.687526 59.048 -82.0034
583.888181 56.828 -113.0642
588.119275 53.837 -141.4404
592.381030 50.552 -110.7390
596.673667 49.631 -83.7739
600.997410 51.677 -128.0830
605.352485 53.719 152.6465
609.739119 54.457 76.7688
614.157540 54.532 30.9861
618.607979 55.334 -0.0022
623.090667 56.318 -36.7427
627.605839 56.530 -79.4294
632.153730 56.526 -108.4038
636.734576 57.630 -44.5198
641.348617 59.351 -87.6045
645.996094 60.726 -140.1296
650.677248 61.720 168.8306
655.392323 62.003 118.4956
660.141566 61.000 72.5210
664.925224 58.733 38.7295
669.743546 56.171 29.1719
674.596784 55.176 37.0552
679.485191 55.263 15.2285
684.409020 54.712 -16.4492
689.368530 53.657 -47.1201
694.363979 53.725 72.3157
699.395626 55.828 50.8113
704.463736 58.246 20.1445
709.568570 59.659 -20.2666
714.710396 59.767 -67.7944
719.889483 58.549 -120.1504
725.106099 56.289 -169.4463
730.360516 54.372 168.5479
735.653010 54.313 146.7695
740.983855 55.020 116.1377
746.353329 56.472 105.8809
751.761713 58.703 99.6289
757.209288 60.247 73.7578
762.696339 60.541 44.9004
768.223151 59.873 22.5103
773.790013 58.928 5.9336
779.397214 58.389 0.2061
785.045047 59.124 31.3569
790.733808 60.361 17.3701
796.463791 60.732 -11.2871
802.235296 59.907 -39.1245
808.048623 58.370 -52.4487
813.904077 57.509 -39.5811
819.801961 57.584 -54.1836
825.742584 57.875 -78.0732
831.726255 57.966 -112.1772
837.753287 57.507 -151.0908
843.823992 57.806 175.1997
849.938689 59.239 141.1978
856.097695 60.802 109.2783
862.301332 61.803 77.7827
868.549922 61.840 48.8291
874.843793 61.870 39.0068
881.183272 63.316 43.5195
887.568689 64.802 21.1572
894.000378 64.922 -11.6890
900.478673 63.527 -40.7744
907.003913 61.210 -62.4478
913.576437 58.750 -81.8311
920.196588 57.072 -103.3091
926.864712 57.268 -142.1924
933.581156 58.309 148.9961
940.346270 58.960 95.7515
947.160407 59.617 63.8418
954.023921 60.207 38.2329
960.937172 60.174 17.5610
967.900519 59.982 6.6230
974.914325 59.948 -8.5669
981.978956 59.417 -30.0693
989.094780 58.334 -44.0874
996.262169 58.180 27.4390
1003.481495 59.690 26.5625
1010.753136 61.358 7.5449
1018.077470 62.242 -13.0449
1025.454879 61.909 -32.7568
1032.885748 60.629 -42.7339
1040.370463 59.530 -45.7754
1047.909417 59.346 -49.9526
1055.503000 59.698 -61.1387
1063.151610 59.777 -81.1201
1070.855645 58.680 -109.0132
1078.615506 56.511 -125.8560
1086.431599 56.532 12.0308
1094.304330 59.245 5.9644
1102.234110 60.996 -27.6865
1110.221353 60.696 -65.5693
1118.266475 58.557 -94.7393
1126.369895 55.733 -71.0469
1134.532035 54.695 -23.6094
1142.753322 55.645 -29.8242
1151.034184 56.413 -47.4707
1159.375052 56.230 -64.8521
1167.776361 56.409 -76.2070
1176.238550 58.043 -66.2935
1184.762060 60.477 -7.8584
1193.347334 62.254 -40.7178
1201.994821 62.849 -80.5024
1210.704971 62.217 -122.5420
1219.478238 60.222 -164.6260
1228.315080 57.724 157.7202
1237.215957 57.417 108.5376
1246.181334 58.433 54.0308
1255.211678 58.478 10.0225
1264.307459 57.563 -17.9839
1273.469152 56.624 -16.7427
1282.697235 56.807 -14.5171
1291.992188 58.269 -8.1855
1301.354495 60.204 -11.2534
1310.784647 61.433 -31.2764
1320.283132 61.842 -51.5933
1329.850448 61.788 -69.5640
1339.487093 61.322 -80.8501
1349.193569 61.110 -68.5708
1358.970381 61.397 -78.5742
1368.818041 61.456 -94.5591
1378.737061 61.332 -113.3804
1388.727958 60.399 -136.9014
1398.791253 59.113 -129.2812
1408.927471 58.496 -100.1299
1419.137140 57.298 -119.2568
1429.420793 55.120 -125.4863
1439.778965 54.041 -106.9126
1450.212197 55.112 -80.8813
1460.721033 56.312 -97.0488
1471.306019 56.558 -122.3369
1481.967709 56.897 -151.2485
1492.706658 57.971 145.7095
1503.523426 59.293 34.9341
1514.418576 59.718 -22.6274
1525.392678 59.272 -51.1167
1536.446302 58.898 -69.8188
1547.580025 58.506 -81.5571
1558.794428 59.207 -75.1323
1570.090095 60.985 -78.1460
1581.467615 62.074 -96.3394
1592.927581 62.297 -113.0947
1604.470591 62.437 -125.4053
1616.097246 62.422 -140.7407
1627.808153 62.027 -150.6616
1639.603922 62.051 -156.8750
1651.485168 62.037 -173.6885
1663.452510 61.411 168.4014
1675.506573 60.633 149.6113
1687.647984 59.620 124.4165
1699.877377 57.746 93.5732
1712.195390 55.889 56.9912
1724.602663 57.131 -125.9155
1737.099845 59.143 -158.5024
1749.687587 59.250 163.6240
1762.366544 58.063 137.8940
1775.137379 56.911 106.9849
1788.000756 56.007 -101.7939
1800.957346 55.714 -142.5420
1814.007826 55.924 -172.9995
1827.152874 56.154 158.3037
1840.393177 56.813 128.0015
1853.729425 57.128 -123.3911
1867.162312 56.601 -149.0615
1880.692540 55.737 -174.5508
1894.320813 55.281 168.2090
1908.047843 55.184 151.6758
1921.874344 54.994 135.5967
1935.801038 54.607 118.0552
1949.828650 53.868 100.0474
