* Measurement data measured by REW V5.31
* Source: Scarlett 2i4 USB, MICROPHONE, R, volume: no control. Timing signal peak level -36.8 dBFS, measurement signal peak level -25.2 dBFS
* Format: 512k Log Swept Sine, 1 sweep at -18.0 dBFS using an acoustic timing reference
* Dated: Apr 24, 2024 6:11:21 PM
* REW Settings:
*  C-weighting compensation: Off
*  Target level: 75.0 dB
* Note: ; Delay -0.9311 ms (-319 mm, -(1 ft 0.57 in)) using estimated IR delay relative to Acoustic reference played from SPEAKER L with no timing offset
* Measurement: qrd-fr-p1-c
* Smoothing: 1/48 octave
* Frequency Step: 96 ppo
* Start Frequency: 10.093689 Hz
*
* Freq(Hz) SPL(dB) Phase(degrees)
10.093689 20.451 46.7353
10.166832 20.702 45.6916
10.240505 21.007 44.6272
10.314712 21.320 43.4633
10.389457 21.639 42.1218
10.464743 21.968 40.5394
10.540575 22.313 38.7853
10.616956 22.664 36.9192
10.693891 23.010 34.9696
10.771383 23.339 32.9463
10.849437 23.651 30.7854
10.928057 23.948 28.5142
11.007246 24.231 26.2273
11.087009 24.495 24.0019
11.167350 24.739 21.8204
11.248273 24.964 19.5926
11.329783 25.172 17.4026
11.411883 25.370 15.3390
11.494578 25.557 13.4463
11.577873 25.732 11.6356
11.661771 25.900 9.9177
11.746277 26.074 8.3247
11.831395 26.258 6.9018
11.917130 26.448 5.6477
12.003487 26.650 4.4850
12.090469 26.873 3.3433
12.178081 27.123 2.2360
12.266329 27.398 1.2377
12.355216 27.694 0.2136
12.444747 28.010 -0.9682
12.534926 28.347 -2.2771
12.625760 28.703 -3.6373
12.717251 29.068 -5.1437
12.809406 29.429 -6.8864
12.902228 29.790 -8.8260
12.995723 30.146 -10.9030
13.089895 30.486 -13.1097
13.184750 30.803 -15.4869
13.280292 31.098 -18.0577
13.376526 31.367 -20.7050
13.473458 31.604 -23.3424
13.571093 31.806 -26.1032
13.669434 31.975 -28.9456
13.768489 32.108 -31.6996
13.868261 32.202 -34.3317
13.968756 32.259 -36.9986
14.069979 32.282 -39.5439
14.171936 32.274 -41.8071
14.274632 32.230 -43.9103
14.378072 32.162 -45.8216
14.482261 32.082 -47.4122
14.587206 31.987 -48.6388
14.692910 31.889 -49.5574
14.799381 31.809 -50.1939
14.906624 31.756 -50.4749
15.014643 31.731 -50.4198
15.123446 31.750 -50.2323
15.233036 31.824 -49.9675
15.343421 31.949 -49.5674
15.454606 32.113 -49.2600
15.566596 32.312 -49.1612
15.679398 32.543 -49.1820
15.793018 32.784 -49.3838
15.907460 33.021 -49.8222
16.022732 33.255 -50.4465
16.138840 33.472 -51.1511
16.255788 33.664 -51.9355
16.373585 33.834 -52.7979
16.492234 33.983 -53.5819
16.611744 34.111 -54.2765
16.732119 34.224 -54.8968
16.853367 34.334 -55.3591
16.975494 34.443 -55.6449
17.098505 34.559 -55.8121
17.222408 34.693 -55.8968
17.347209 34.847 -55.8670
17.472914 35.018 -55.8388
17.599530 35.207 -55.8804
17.727063 35.411 -55.9575
17.855521 35.614 -56.1287
17.984909 35.813 -56.4298
18.115235 36.000 -56.7794
18.246506 36.164 -57.1202
18.378727 36.305 -57.4893
18.511907 36.425 -57.6953
18.646052 36.522 -57.7115
18.781169 36.611 -57.5134
18.917265 36.709 -56.9576
19.054347 36.824 -56.0727
19.192423 36.986 -54.9436
19.331499 37.211 -53.5391
19.471583 37.505 -52.0627
19.612682 37.876 -50.7384
19.754804 38.318 -49.5510
19.897956 38.806 -48.8125
20.042144 39.332 -48.4600
20.187378 39.868 -48.5452
20.333664 40.396 -49.0876
20.481010 40.907 -49.9662
20.629424 41.386 -51.1374
20.778913 41.832 -52.5508
20.929486 42.243 -54.0664
21.081150 42.619 -55.7024
21.233912 42.966 -57.3381
21.387782 43.287 -58.9743
21.542767 43.590 -60.5753
21.698874 43.877 -62.1189
21.856113 44.155 -63.6190
22.014492 44.425 -65.0686
22.174018 44.690 -66.4774
22.334700 44.950 -67.8525
22.496546 45.205 -69.1899
22.659566 45.454 -70.4788
22.823766 45.697 -71.7163
22.989157 45.937 -72.8636
23.155745 46.176 -73.9258
23.323542 46.417 -74.8624
23.492554 46.666 -75.6830
23.662790 46.930 -76.3777
23.834261 47.212 -76.9580
24.006973 47.520 -77.4521
24.180938 47.855 -77.8726
24.356163 48.223 -78.2673
24.532658 48.625 -78.6534
24.710431 49.063 -79.0794
24.889493 49.538 -79.5841
25.069853 50.052 -80.2087
25.251519 50.604 -81.0406
25.434502 51.190 -82.0944
25.618811 51.804 -83.5081
25.804456 52.439 -85.2511
25.991445 53.077 -87.4552
26.179790 53.710 -90.0493
26.369500 54.320 -93.0974
26.560584 54.897 -96.5077
26.753053 55.429 -100.2770
26.946917 55.908 -104.2873
27.142185 56.330 -108.5375
27.338869 56.694 -112.8654
27.536977 56.999 -117.2983
27.736522 57.251 -121.6852
27.937512 57.455 -126.0472
28.139959 57.617 -130.3303
28.343872 57.744 -134.5288
28.549264 57.841 -138.6727
28.756143 57.909 -142.7720
28.964522 57.945 -146.8560
29.174411 57.943 -150.9672
29.385821 57.891 -155.0474
29.598763 57.779 -159.1007
29.813248 57.595 -163.0125
30.029287 57.331 -166.6141
30.246891 56.987 -169.8014
30.466073 56.573 -172.2487
30.686842 56.122 -173.8107
30.909212 55.672 -174.2435
31.133193 55.302 -173.5541
31.358797 55.073 -171.9791
31.586035 55.033 -169.8657
31.814921 55.182 -167.9431
32.045465 55.476 -166.5566
32.277680 55.862 -165.9106
32.511577 56.282 -165.9939
32.747169 56.709 -166.6299
32.984469 57.134 -167.6990
33.223488 57.556 -169.0808
33.464239 57.980 -170.7764
33.706735 58.406 -172.8056
33.950987 58.825 -175.1998
34.197010 59.224 -177.9973
34.444816 59.589 178.8564
34.694417 59.908 175.4208
34.945827 60.176 171.7732
35.199059 60.395 168.0349
35.454126 60.573 164.2513
35.711041 60.715 160.4358
35.969818 60.830 156.5747
36.230470 60.918 152.6125
36.493011 60.968 148.5104
36.757455 60.969 144.2682
37.023814 60.903 139.9182
37.292104 60.757 135.5739
37.562338 60.524 131.4405
37.834530 60.212 127.7010
38.108695 59.839 124.5271
38.384846 59.438 122.0583
38.662999 59.052 120.3209
38.943167 58.722 119.1300
39.225365 58.467 118.1998
39.509608 58.279 117.2532
39.795911 58.132 116.1004
40.084289 57.990 114.6925
40.374756 57.822 113.1268
40.667328 57.614 111.6054
40.962020 57.366 110.3513
41.258848 57.097 109.5482
41.557827 56.838 109.3165
41.858972 56.627 109.6752
42.162299 56.506 110.5031
42.467824 56.505 111.5251
42.775564 56.631 112.3615
43.085533 56.863 112.6390
43.397749 57.156 112.1120
43.712227 57.456 110.7215
44.028983 57.719 108.5725
44.348036 57.914 105.8588
44.669400 58.028 102.7960
44.993093 58.057 99.5775
45.319131 58.006 96.3550
45.647532 57.884 93.2403
45.978313 57.700 90.3202
46.311491 57.462 87.6720
46.647083 57.184 85.3670
46.985107 56.883 83.4540
47.325581 56.579 81.9277
47.668521 56.289 80.7080
48.013947 56.022 79.6595
48.361876 55.771 78.6547
48.712326 55.524 77.6440
49.065315 55.265 76.6816
49.420863 54.993 75.8846
49.778987 54.719 75.3426
50.139706 54.462 75.0360
50.503039 54.233 74.8244
50.869005 54.024 74.5311
51.237623 53.811 74.0759
51.608912 53.567 73.5540
51.982891 53.279 73.1971
52.359580 52.962 73.2371
52.739000 52.646 73.7514
53.121168 52.355 74.6116
53.506106 52.090 75.6180
53.893833 51.832 76.7260
54.284370 51.567 78.1414
54.677737 51.315 80.1722
55.073955 51.131 82.8824
55.473043 51.055 85.8749
55.875024 51.068 88.5719
56.279917 51.099 90.7930
56.687745 51.090 93.0286
57.098527 51.065 96.2408
57.512287 51.168 101.2247
57.929045 51.595 107.7314
58.348822 52.445 114.1961
58.771642 53.633 118.7991
59.197525 54.981 120.7421
59.626495 56.341 120.1686
60.058573 57.627 117.5153
60.493782 58.787 113.1674
60.932145 59.787 107.4693
61.373685 60.604 100.7429
61.818424 61.226 93.3263
62.266386 61.649 85.5898
62.717593 61.883 77.8510
63.172071 61.954 70.4225
63.629842 61.898 63.5498
64.090930 61.760 57.3136
64.555359 61.582 51.6653
65.023154 61.395 46.4512
65.494339 61.213 41.5096
65.968938 61.045 36.7090
66.446976 60.899 31.9381
66.928478 60.785 27.0179
67.413469 60.697 21.6963
67.901975 60.616 15.7477
68.394021 60.512 9.0613
68.889632 60.362 1.6428
69.388835 60.167 -6.4863
69.891655 59.942 -15.4882
70.398118 59.702 -25.7570
70.908252 59.439 -37.8477
71.422083 59.122 -52.2463
71.939636 58.718 -69.3354
72.460941 58.218 -89.1310
72.986023 57.656 -111.4564
73.514909 57.110 -135.3109
74.047629 56.680 -159.0361
74.584208 56.471 179.4067
75.124676 56.566 161.3483
75.669061 57.013 146.8252
76.217390 57.781 134.7666
76.769692 58.756 123.7532
77.325997 59.792 112.7036
77.886333 60.754 101.0757
78.450730 61.538 88.8446
79.019216 62.079 76.2980
79.591822 62.356 64.0935
80.168577 62.413 52.9441
80.749512 62.363 43.3462
81.334656 62.352 35.1415
81.924040 62.461 27.3722
82.517696 62.657 19.0626
83.115653 62.844 9.8182
83.717943 62.938 -0.1988
84.324598 62.894 -10.6105
84.935649 62.697 -21.0016
85.551128 62.363 -30.9205
86.171066 61.947 -40.0042
86.795497 61.525 -48.2305
87.424453 61.157 -55.9648
88.057967 60.858 -63.6008
88.696071 60.625 -71.3852
89.338800 60.443 -79.6998
89.986185 60.248 -89.1241
90.638262 59.905 -99.8942
91.295065 59.259 -111.4432
91.956626 58.201 -122.5446
92.622982 56.688 -131.5807
93.294166 54.787 -135.8347
93.970214 53.046 -128.2570
94.651161 53.001 -103.9996
95.337042 54.861 -91.1642
96.027894 56.889 -95.5649
96.723752 58.298 -106.3841
97.424652 59.072 -118.2600
98.130631 59.386 -128.9298
98.841726 59.432 -137.7195
99.557974 59.348 -144.7588
100.279412 59.231 -150.1826
101.006078 59.183 -153.9277
101.738010 59.320 -156.4495
102.475245 59.666 -159.1547
103.217823 60.089 -163.2163
103.965782 60.430 -168.3546
104.719161 60.643 -173.2706
105.477999 60.837 -176.7476
106.242336 61.203 -178.7507
107.012212 61.832 179.1138
107.787666 62.615 175.0878
108.568740 63.359 168.8328
109.355474 63.935 161.0773
110.147909 64.304 152.7000
110.946086 64.488 144.3987
111.750047 64.543 136.4677
112.559834 64.506 128.6616
113.375489 64.363 120.6675
114.197055 64.077 112.5344
115.024574 63.623 104.4293
115.858089 62.978 96.5315
116.697645 62.124 89.2932
117.543284 61.083 83.2009
118.395051 59.887 78.3253
119.252990 58.545 75.0029
120.117147 57.109 74.3287
120.987565 55.718 76.3441
121.864291 54.451 79.2332
122.747370 53.235 83.1943
123.636848 52.155 91.3037
124.532771 51.716 105.3989
125.435187 52.459 122.4158
126.344142 54.075 132.2451
127.259684 55.722 131.8356
128.181860 56.959 125.6979
129.110718 57.688 116.6367
130.046308 57.868 105.7904
130.988677 57.479 94.2529
131.937875 56.544 82.1948
132.893951 55.135 68.0750
133.856956 53.910 46.9235
134.826938 54.940 -65.7856
135.803950 58.048 -136.0624
136.788041 60.980 -161.4692
137.779264 62.973 175.5022
138.777669 63.998 154.0476
139.783309 64.233 135.5630
140.796237 63.920 120.6425
141.816504 63.221 108.5889
142.844165 62.183 99.3995
143.879273 60.905 94.7299
144.921881 59.693 95.6672
145.972045 58.928 99.8237
147.029819 58.714 103.4867
148.095257 58.891 105.6870
149.168417 59.333 106.8406
150.249353 59.991 106.7568
151.338121 60.748 103.7942
152.434780 61.382 97.2626
153.539385 61.734 88.3508
154.651995 61.751 77.9025
155.772667 61.374 66.0393
156.901460 60.520 53.3740
158.038432 59.155 41.1781
159.183644 57.379 30.5651
160.337154 55.579 20.2120
161.499023 54.548 2.7388
162.669312 54.980 -31.1404
163.848081 56.556 -75.6830
165.035392 58.388 -112.5940
166.231306 59.932 -139.2604
167.435887 61.067 -158.7906
168.649196 61.861 -173.2145
169.871298 62.414 176.0980
171.102255 62.846 168.5996
172.342133 63.320 164.0648
173.590995 63.932 160.7911
174.848907 64.590 156.6934
176.115934 65.166 152.0046
177.392143 65.723 148.6514
178.677599 66.471 147.1204
179.972371 67.442 144.4563
181.276525 68.404 138.5333
182.590129 69.159 130.4905
183.913252 69.674 121.7803
185.245964 69.939 112.3202
186.588332 69.867 101.9504
187.940428 69.362 91.9352
189.302322 68.450 84.6819
190.674085 67.349 82.1698
192.055788 66.404 83.8337
193.447503 65.840 86.6881
194.849303 65.647 89.3502
196.261262 65.792 92.2595
197.683452 66.339 95.6206
199.115948 67.284 97.6016
200.558824 68.362 95.1500
202.012156 69.222 88.0935
203.476019 69.663 78.5731
204.950490 69.614 68.2273
206.435646 69.046 58.5660
207.931564 68.047 52.5571
209.438322 66.978 52.9215
210.955998 66.340 56.9438
212.484672 66.201 58.3921
214.024424 66.155 56.1917
215.575333 65.925 53.6079
217.137481 65.682 54.8560
218.710948 65.898 60.0188
220.295818 66.682 62.5847
221.892172 67.601 59.2640
223.500094 68.240 51.6001
225.119668 68.460 42.6827
226.750978 68.351 34.6715
228.394109 68.019 27.0186
230.049147 67.436 19.0305
231.716178 66.547 12.1533
233.395289 65.415 7.7462
235.086567 64.162 5.7012
236.790102 62.988 7.7273
238.505980 62.356 15.2777
240.234293 62.537 20.5583
241.975130 63.034 17.9763
243.728581 63.242 9.9583
245.494739 62.851 -0.6637
247.273695 61.733 -10.4142
249.065542 59.997 -14.3837
250.870374 57.985 -12.9951
252.688284 55.902 -10.6014
254.519367 53.844 -0.6055
256.363720 52.591 26.6486
258.221437 52.973 47.9916
260.092616 54.590 58.3533
261.977354 57.198 73.2727
263.875750 60.249 84.2155
265.787903 62.771 77.5305
267.713911 64.184 59.8718
269.653877 64.341 40.6689
271.607900 63.540 28.9639
273.576083 62.643 28.6215
275.558528 62.569 32.3746
277.555338 63.346 32.2701
279.566619 64.438 27.0099
281.592474 65.506 18.1073
283.633009 66.285 4.3243
285.688331 66.406 -14.6725
287.758546 65.603 -35.1980
289.843763 63.838 -52.5819
291.944090 61.251 -63.5619
294.059638 58.114 -62.2375
296.190515 55.178 -42.2343
298.336833 53.735 -28.4738
300.498705 54.291 -15.7512
302.676243 56.275 0.4205
304.869559 58.248 -4.6498
307.078770 59.411 -20.2935
309.303989 60.065 -33.6436
311.545334 60.863 -43.7168
313.802919 61.754 -59.0431
316.076865 62.115 -81.4541
318.367288 61.600 -106.1030
320.674309 60.187 -129.4624
322.998047 58.074 -145.9741
325.338624 56.550 -126.6318
327.696162 57.597 -98.8848
330.070783 59.584 -113.0273
332.462612 60.779 -136.8271
334.871773 60.960 -160.1252
337.298392 60.442 -177.7664
339.742595 59.733 170.4583
342.204510 59.083 160.3188
344.684265 58.536 154.1309
347.181989 58.312 150.8064
349.697813 58.272 144.1458
352.231868 58.233 138.6123
354.784285 58.475 136.4807
357.355198 59.202 134.1877
359.944741 60.142 127.0430
362.553049 60.901 115.4805
365.180258 61.275 101.3792
367.826505 61.164 85.8550
370.491927 60.663 72.2708
373.176665 60.193 61.5706
375.880856 60.036 48.4551
378.604644 60.048 30.7124
381.348169 60.120 9.2671
384.111575 60.171 -17.1838
386.895006 60.013 -47.3672
389.698607 59.716 -76.3308
392.522524 59.712 -100.2876
395.366904 60.150 -122.3037
398.231895 60.380 -146.6628
401.117648 59.836 -168.7212
404.024312 58.772 -179.6096
406.952038 58.193 -179.4084
409.900981 58.503 177.5852
412.871292 58.999 169.0901
415.863128 59.102 158.2368
418.876643 58.675 148.8230
421.911996 57.893 143.5479
424.969344 57.167 143.3569
428.048847 57.159 152.4846
431.150666 58.111 160.2576
434.274961 59.122 154.2771
437.421897 59.520 143.6150
440.591636 59.383 137.5220
443.784345 59.381 139.9050
447.000189 59.652 136.3357
450.239337 59.885 131.5969
453.501956 60.310 129.6128
456.788219 60.803 122.3171
460.098294 60.754 108.7139
463.432356 59.841 95.3066
466.790578 58.709 96.4165
470.173135 59.256 128.2322
473.580203 61.266 130.6992
477.011961 63.014 113.9624
480.468586 64.140 92.9158
483.950259 64.634 67.3455
487.457163 64.398 36.2898
490.989478 63.397 -1.1045
494.547390 61.958 -49.8508
498.131084 60.698 -119.0183
501.740748 60.079 177.9297
505.376568 60.113 135.4763
509.038735 60.255 102.1494
512.727439 60.475 75.7461
516.442874 61.295 52.9480
520.185232 62.325 22.9927
523.954708 62.767 -13.2698
527.751500 62.455 -49.8276
531.575805 61.361 -83.2000
535.427822 59.610 -107.9294
539.307753 57.986 -123.2317
543.215800 58.064 -108.8591
547.152165 60.219 -89.3113
551.117055 62.422 -108.0923
555.110677 63.753 -134.1267
559.133237 64.081 -162.2197
563.184947 63.242 168.8125
567.266018 61.098 143.5427
571.376661 57.849 136.0796
575.517092 55.248 -152.8999
579.687526 55.814 -132.6360
583.888181 57.422 -145.9695
588.119275 58.110 -165.6787
592.381030 57.378 173.9521
596.673667 55.439 161.3652
600.997410 54.069 -179.7566
605.352485 55.970 -98.2666
609.739119 59.021 -101.3188
614.157540 61.407 -116.2603
618.607979 62.977 -132.6035
623.090667 63.706 -149.7390
627.605839 63.934 -162.5627
632.153730 64.103 -172.9055
636.734576 64.167 174.7522
641.348617 64.033 163.1079
645.996094 64.007 152.4905
650.677248 64.102 136.6262
655.392323 63.838 112.5796
660.141566 62.705 80.6333
664.925224 60.629 38.8157
669.743546 57.958 -34.3110
674.596784 55.450 -117.7239
679.485191 53.658 -158.3896
684.409020 52.328 177.1245
689.368530 52.015 -141.6179
694.363979 54.065 -96.3003
699.395626 56.898 -109.2661
704.463736 58.821 -132.1218
709.568570 59.159 -161.4268
714.710396 57.701 171.0872
719.889483 55.041 159.2561
725.106099 54.051 -88.9470
730.360516 56.345 -83.7065
735.653010 58.845 -100.3584
740.983855 60.546 -119.0344
746.353329 61.619 -137.3997
751.761713 61.779 -160.7722
757.209288 60.681 175.9041
762.696339 58.556 157.2620
768.223151 56.143 151.8101
773.790013 55.311 135.8069
779.397214 56.372 49.9448
785.045047 58.033 -21.7732
790.733808 59.300 -57.7615
796.463791 59.796 -80.1313
802.235296 60.656 -84.4353
808.048623 62.739 -85.3533
813.904077 65.050 -96.7749
819.801961 66.517 -119.9575
825.742584 66.689 -148.5239
831.726255 65.695 -175.1846
837.753287 64.306 158.5835
843.823992 62.984 116.6692
849.938689 61.700 44.5178
856.097695 61.506 -18.7344
862.301332 63.275 -46.0020
868.549922 65.192 -71.2051
874.843793 65.737 -100.1025
881.183272 64.949 -123.0596
887.568689 63.436 -137.7412
894.000378 61.886 -141.2217
900.478673 61.406 -137.5205
907.003913 62.155 -139.5098
913.576437 62.757 -155.7324
920.196588 62.150 -179.0342
926.864712 60.325 158.4888
933.581156 57.551 139.3130
940.346270 54.655 119.4702
947.160407 53.554 81.8115
954.023921 55.296 19.5034
960.937172 58.032 -22.1836
967.900519 59.995 -66.2793
974.914325 60.512 -113.0776
981.978956 59.848 16.9390
989.094780 59.161 -17.9497
996.262169 59.012 -47.4897
1003.481495 58.768 -70.9282
1010.753136 58.404 -89.2739
1018.077470 59.056 -86.2754
1025.454879 61.038 -9.8159
1032.885748 63.185 -31.8818
1040.370463 64.447 -61.8828
1047.909417 64.228 -94.2305
1055.503000 62.383 -119.1978
1063.151610 60.101 -85.5059
1070.855645 60.095 -38.1943
1078.615506 61.578 -48.6143
1086.431599 62.867 -63.6074
1094.304330 63.212 -85.9380
1102.234110 62.452 -108.0791
1110.221353 61.070 -126.6670
1118.266475 60.305 -125.8643
1126.369895 60.876 -93.2495
1134.532035 60.787 -116.8379
1142.753322 58.969 -148.4878
1151.034184 56.572 157.9512
1159.375052 55.924 46.4229
1167.776361 57.236 6.4082
1176.238550 58.188 -25.1089
1184.762060 57.784 -56.4951
1193.347334 56.607 -87.0122
1201.994821 56.030 58.8511
1210.704971 56.991 35.3706
1219.478238 58.655 17.5088
1228.315080 60.475 5.1841
1237.215957 61.614 -14.3223
1246.181334 61.381 -35.4805
1255.211678 60.085 -46.7275
1264.307459 58.881 -48.5737
1273.469152 58.515 -47.7988
1282.697235 58.393 -60.8955
1291.992188 57.549 -84.0264
1301.354495 55.579 -103.6211
1310.784647 53.247 -20.2632
1320.283132 53.001 22.3213
1329.850448 55.526 41.2988
1339.487093 57.786 27.0864
1349.193569 58.844 5.7529
1358.970381 59.604 -11.8564
1368.818041 60.655 -32.0557
1378.737061 61.419 -64.5815
1388.727958 61.312 -109.8481
1398.791253 60.620 -163.1455
1408.927471 60.188 148.6333
1419.137140 60.546 114.7935
1429.420793 61.256 87.5107
1439.778965 61.478 62.4438
1450.212197 60.749 39.9214
1460.721033 59.288 27.5054
1471.306019 58.056 40.5635
1481.967709 57.850 42.0918
1492.706658 57.718 29.7202
1503.523426 56.904 13.8105
1514.418576 55.368 5.3599
1525.392678 54.747 58.9312
1536.446302 55.988 74.1255
1547.580025 57.603 56.9355
1558.794428 58.913 32.2061
1570.090095 59.417 -6.2280
1581.467615 59.050 -64.8350
1592.927581 57.980 -141.3062
1604.470591 56.703 176.9053
1616.097246 56.786 159.0635
1627.808153 58.154 151.6714
1639.603922 59.579 150.5786
1651.485168 59.837 137.0215
1663.452510 59.730 141.4688
1675.506573 60.955 147.6401
1687.647984 62.713 139.5200
1699.877377 64.093 124.3931
1712.195390 64.602 103.2070
1724.602663 63.916 80.0801
1737.099845 62.434 62.5806
1749.687587 61.263 39.5610
1762.366544 60.985 -10.0762
1775.137379 62.037 -77.6948
1788.000756 63.839 -119.7642
1800.957346 64.621 -152.9863
1814.007826 64.540 -173.7495
1827.152874 64.518 169.4990
1840.393177 64.002 151.5645
1853.729425 62.905 159.4712
1867.162312 63.151 -171.8013
1880.692540 64.616 -176.0010
1894.320813 65.510 169.1313
1908.047843 65.412 153.4316
1921.874344 64.281 139.2666
