* Measurement data measured by REW V5.31
* Source: Scarlett 2i4 USB, MICROPHONE, R, volume: no control. Timing signal peak level -37.3 dBFS, measurement signal peak level -29.6 dBFS
* Format: 512k Log Swept Sine, 1 sweep at -18.0 dBFS using an acoustic timing reference
* Dated: Apr 24, 2024 6:09:13 PM
* REW Settings:
*  C-weighting compensation: Off
*  Target level: 75.0 dB
* Note: ; Delay -0.0121 ms (-4.1 mm, -0.16 in) using estimated IR delay relative to Acoustic reference played from SPEAKER L with no timing offset
* Measurement: qrd-fr-p1-l
* Smoothing: 1/48 octave
* Frequency Step: 96 ppo
* Start Frequency: 10.093689 Hz
*
* Freq(Hz) SPL(dB) Phase(degrees)
10.093689 18.169 -7.2313
10.166832 18.758 -11.4243
10.240505 19.465 -15.4739
10.314712 20.189 -19.3964
10.389457 20.910 -23.2673
10.464743 21.596 -27.2008
10.540575 22.227 -31.2352
10.616956 22.818 -35.2454
10.693891 23.370 -39.1729
10.771383 23.878 -43.0295
10.849437 24.341 -47.0258
10.928057 24.759 -51.1431
11.007246 25.131 -55.2131
11.087009 25.456 -59.1375
11.167350 25.732 -63.0531
11.248273 25.960 -67.1882
11.329783 26.135 -71.3337
11.411883 26.254 -75.3020
11.494578 26.318 -79.1053
11.577873 26.325 -83.1209
11.661771 26.270 -87.1719
11.746277 26.146 -91.0117
11.831395 25.951 -94.5467
11.917130 25.687 -98.1794
12.003487 25.342 -101.7752
12.090469 24.903 -105.0496
12.178081 24.360 -107.8114
12.266329 23.717 -110.3247
12.355216 22.967 -112.4475
12.444747 22.096 -113.8376
12.534926 21.038 -114.0087
12.625760 19.829 -112.6508
12.717251 18.664 -109.4210
12.809406 17.757 -104.0116
12.902228 17.120 -95.2209
12.995723 16.754 -83.7587
13.089895 16.746 -72.5378
13.184750 17.208 -63.9691
13.280292 18.115 -57.9650
13.376526 19.158 -54.3529
13.473458 20.043 -52.5554
13.571093 20.738 -52.4189
13.669434 21.300 -53.2893
13.768489 21.715 -54.3969
13.868261 21.961 -55.5712
13.968756 22.045 -57.2392
14.069979 21.983 -58.7211
14.171936 21.781 -59.3452
14.274632 21.416 -59.4641
14.378072 20.964 -58.7884
14.482261 20.526 -56.6418
14.587206 20.089 -52.5114
14.692910 19.740 -46.5341
14.799381 19.703 -39.5637
14.906624 20.118 -32.2289
15.014643 20.871 -25.3826
15.123446 21.774 -20.6354
15.233036 22.749 -18.1621
15.343421 23.792 -17.1394
15.454606 24.773 -17.4513
15.566596 25.612 -19.0022
15.679398 26.336 -21.3991
15.793018 26.945 -24.1795
15.907460 27.431 -27.3742
16.022732 27.798 -31.0620
16.138840 28.054 -34.7006
16.255788 28.202 -38.3340
16.373585 28.240 -42.1751
16.492234 28.179 -45.6781
16.611744 28.016 -48.8935
16.732119 27.760 -51.9410
16.853367 27.427 -54.3676
16.975494 27.014 -56.1167
17.098505 26.558 -57.2163
17.222408 26.108 -57.4433
17.347209 25.667 -56.5488
17.472914 25.311 -54.8761
17.599530 25.109 -52.6148
17.727063 25.054 -49.7502
17.855521 25.143 -47.1512
17.984909 25.384 -44.9778
18.115235 25.717 -43.3173
18.246506 26.071 -42.3981
18.378727 26.440 -42.1278
18.511907 26.787 -42.1885
18.646052 27.090 -42.5634
18.781169 27.362 -43.1068
18.917265 27.611 -43.5027
19.054347 27.842 -43.8316
19.192423 28.087 -44.0161
19.331499 28.359 -43.9675
19.471583 28.670 -43.8599
19.612682 29.035 -43.8257
19.754804 29.448 -43.8385
19.897956 29.894 -44.1888
20.042144 30.366 -44.8237
20.187378 30.837 -45.7658
20.333664 31.289 -47.0716
20.481010 31.714 -48.5941
20.629424 32.095 -50.2517
20.778913 32.432 -52.0344
20.929486 32.726 -53.6963
21.081150 32.978 -55.3002
21.233912 33.205 -56.6710
21.387782 33.414 -57.7896
21.542767 33.622 -58.6830
21.698874 33.844 -59.3052
21.856113 34.087 -59.7783
22.014492 34.360 -60.1720
22.174018 34.660 -60.5403
22.334700 34.978 -61.0275
22.496546 35.307 -61.6000
22.659566 35.630 -62.3198
22.823766 35.942 -63.1407
22.989157 36.233 -63.9855
23.155745 36.503 -64.8422
23.323542 36.756 -65.5715
23.492554 36.998 -66.1897
23.662790 37.243 -66.6142
23.834261 37.501 -66.8751
24.006973 37.787 -67.0104
24.180938 38.104 -67.0553
24.356163 38.458 -67.1265
24.532658 38.847 -67.2450
24.710431 39.267 -67.5072
24.889493 39.713 -67.9131
25.069853 40.180 -68.4924
25.251519 40.667 -69.2598
25.434502 41.175 -70.2006
25.618811 41.702 -71.3935
25.804456 42.250 -72.8075
25.991445 42.812 -74.5810
26.179790 43.384 -76.6683
26.369500 43.952 -79.1930
26.560584 44.506 -82.0860
26.753053 45.030 -85.3958
26.946917 45.513 -89.0135
27.142185 45.946 -92.9482
27.338869 46.322 -97.0309
27.536977 46.640 -101.2747
27.736522 46.900 -105.4994
27.937512 47.108 -109.7039
28.139959 47.271 -113.8025
28.343872 47.401 -117.7721
28.549264 47.504 -121.6283
28.756143 47.589 -125.3938
28.964522 47.655 -129.1230
29.174411 47.699 -132.8796
29.385821 47.706 -136.6766
29.598763 47.664 -140.5259
29.813248 47.552 -144.3752
30.029287 47.355 -148.0422
30.246891 47.063 -151.4477
30.466073 46.674 -154.2102
30.686842 46.209 -156.1048
30.909212 45.703 -156.7900
31.133193 45.242 -156.0388
31.358797 44.919 -154.0082
31.586035 44.818 -151.0273
31.814921 44.973 -148.1508
32.045465 45.326 -146.0397
32.277680 45.795 -145.0698
32.511577 46.276 -145.2746
32.747169 46.715 -146.2811
32.984469 47.089 -147.8180
33.223488 47.397 -149.5410
33.464239 47.664 -151.2136
33.706735 47.915 -152.7925
33.950987 48.176 -154.2619
34.197010 48.467 -155.7748
34.444816 48.786 -157.5022
34.694417 49.121 -159.5529
34.945827 49.454 -162.0246
35.199059 49.760 -164.9231
35.454126 50.020 -168.1716
35.711041 50.220 -171.6933
35.969818 50.352 -175.3962
36.230470 50.411 -179.1378
36.493011 50.395 177.1949
36.757455 50.307 173.7030
37.023814 50.151 170.4970
37.292104 49.937 167.7021
37.562338 49.681 165.4160
37.834530 49.401 163.6890
38.108695 49.117 162.5430
38.384846 48.848 161.9605
38.662999 48.607 161.8828
38.943167 48.404 162.2401
39.225365 48.244 162.9939
39.509608 48.135 164.1169
39.795911 48.083 165.5801
40.084289 48.095 167.3500
40.374756 48.179 169.4012
40.667328 48.343 171.7625
40.962020 48.613 174.5294
41.258848 49.037 177.7333
41.557827 49.674 -178.8652
41.858972 50.554 -175.8808
42.162299 51.646 -174.1097
42.467824 52.862 -174.1490
42.775564 54.092 -176.1752
43.085533 55.246 179.9919
43.397749 56.265 174.7138
43.712227 57.120 168.3959
44.028983 57.801 161.4135
44.348036 58.310 154.0789
44.669400 58.657 146.6453
44.993093 58.856 139.3185
45.319131 58.924 132.2680
45.647532 58.880 125.6391
45.978313 58.745 119.5564
46.311491 58.547 114.1166
46.647083 58.319 109.3642
46.985107 58.096 105.2568
47.325581 57.909 101.6447
47.668521 57.772 98.3004
48.013947 57.679 95.0060
48.361876 57.610 91.6525
48.712326 57.545 88.2823
49.065315 57.483 85.0412
49.420863 57.445 82.0588
49.778987 57.469 79.3150
50.139706 57.587 76.5773
50.503039 57.808 73.4823
50.869005 58.108 69.7063
51.237623 58.446 65.0930
51.608912 58.791 59.6439
51.982891 59.126 53.4092
52.359580 59.446 46.3813
52.739000 59.746 38.4599
53.121168 60.005 29.4996
53.506106 60.191 19.3960
53.893833 60.261 8.1278
54.284370 60.175 -4.2227
54.677737 59.900 -17.4716
55.073955 59.414 -31.3685
55.473043 58.710 -45.6216
55.875024 57.797 -59.9226
56.279917 56.703 -74.0005
56.687745 55.487 -87.5803
57.098527 54.245 -100.5007
57.512287 53.106 -112.8427
57.929045 52.207 -124.9370
58.348822 51.638 -137.1913
58.771642 51.415 -149.9231
59.197525 51.484 -163.1489
59.626495 51.766 -176.6824
60.058573 52.183 169.6566
60.493782 52.659 155.9576
60.932145 53.122 142.2576
61.373685 53.508 128.5687
61.818424 53.762 115.0308
62.266386 53.856 101.9146
62.717593 53.785 89.4615
63.172071 53.574 77.9544
63.629842 53.275 67.5914
64.090930 52.951 58.3351
64.555359 52.659 49.9422
65.023154 52.431 42.0519
65.494339 52.274 34.3695
65.968938 52.184 26.7100
66.446976 52.164 18.9869
66.928478 52.222 11.0975
67.413469 52.363 2.8992
67.901975 52.584 -5.7177
68.394021 52.874 -14.7648
68.889632 53.235 -24.1425
69.388835 53.688 -33.7415
69.891655 54.257 -43.5847
70.398118 54.948 -53.9133
70.908252 55.726 -64.9954
71.422083 56.521 -76.9739
71.939636 57.262 -89.7197
72.460941 57.901 -102.8830
72.986023 58.423 -116.1190
73.514909 58.833 -129.0935
74.047629 59.150 -141.6215
74.584208 59.401 -153.6140
75.124676 59.614 -165.0991
75.669061 59.812 -176.2993
76.217390 59.991 172.4084
76.769692 60.107 160.6458
77.325997 60.091 148.1909
77.886333 59.868 135.1099
78.450730 59.370 121.5469
79.019216 58.536 107.6421
79.591822 57.287 93.6155
80.168577 55.516 79.7130
80.749512 53.105 66.3463
81.334656 50.042 54.0366
81.924040 47.354 42.1091
82.517696 47.944 -145.6263
83.115653 50.879 -154.9713
83.717943 53.689 -164.2769
84.324598 55.980 -174.0835
84.935649 57.811 175.4333
85.551128 59.236 164.2507
86.171066 60.278 152.6274
86.795497 60.968 141.1804
87.424453 61.388 130.6277
88.057967 61.649 121.2539
88.696071 61.841 112.7329
89.338800 61.992 104.6283
89.986185 62.112 96.9158
90.638262 62.261 89.6860
91.295065 62.508 82.3771
91.956626 62.826 73.7308
92.622982 63.062 62.7722
93.294166 63.006 49.5417
93.970214 62.482 35.0172
94.651161 61.379 20.8699
95.337042 59.683 9.4287
96.027894 57.539 3.4293
96.723752 55.327 4.0590
97.424652 53.537 7.8864
98.130631 52.331 10.3115
98.841726 51.466 10.5533
99.557974 50.667 9.4829
100.279412 49.774 7.8933
101.006078 48.722 7.0292
101.738010 47.591 8.7866
102.475245 46.650 13.5702
103.217823 46.086 17.9530
103.965782 45.701 19.2314
104.719161 45.199 19.0430
105.477999 44.567 20.5905
106.242336 44.134 25.3450
107.012212 44.233 29.6160
107.787666 44.711 28.1461
108.568740 45.159 20.1974
109.355474 45.358 6.6727
110.147909 45.265 -12.5000
110.946086 44.966 -37.4438
111.750047 44.775 -66.5668
112.559834 45.140 -95.3893
113.375489 46.176 -119.4353
114.197055 47.579 -138.0389
115.024574 49.058 -152.6323
115.858089 50.450 -164.9225
116.697645 51.664 -175.9340
117.543284 52.683 174.2053
118.395051 53.539 165.4596
119.252990 54.261 157.7203
120.117147 54.892 151.1169
120.987565 55.505 145.7551
121.864291 56.164 141.2758
122.747370 56.883 136.9263
123.636848 57.622 132.1394
124.532771 58.331 126.7611
125.435187 58.952 120.5000
126.344142 59.408 113.3806
127.259684 59.676 106.4082
128.181860 59.839 100.3293
129.110718 59.977 94.8219
130.046308 60.143 89.9155
130.988677 60.419 85.4608
131.937875 60.777 79.6996
132.893951 61.029 71.7844
133.856956 61.049 63.0820
134.826938 60.901 54.9938
135.803950 60.728 47.0697
136.788041 60.530 37.1252
137.779264 60.083 23.7648
138.777669 59.115 7.7048
139.783309 57.494 -10.0286
140.796237 55.299 -31.3608
141.816504 53.051 -69.0220
142.844165 52.227 -160.0850
143.879273 53.498 151.1757
144.921881 55.388 129.6205
145.972045 56.944 114.1715
147.029819 57.967 100.9283
148.095257 58.513 89.6317
149.168417 58.693 80.2915
150.249353 58.597 72.8555
151.338121 58.359 68.1635
152.434780 58.284 67.4685
153.539385 58.692 68.7524
154.651995 59.425 66.1470
155.772667 59.952 58.2458
156.901460 59.963 48.7803
158.038432 59.501 41.3419
159.183644 58.797 37.4119
160.337154 58.125 36.7302
161.499023 57.708 38.0345
162.669312 57.671 40.1013
163.848081 58.027 41.3875
165.035392 58.636 40.1470
166.231306 59.230 35.0593
167.435887 59.505 26.2224
168.649196 59.248 15.7323
169.871298 58.407 6.2528
171.102255 57.077 0.5361
172.342133 55.565 1.2324
173.590995 54.321 5.6403
174.848907 53.370 6.4681
176.115934 52.284 5.4640
177.392143 51.172 14.2512
178.677599 51.170 40.2992
179.972371 52.394 52.2191
181.276525 53.563 49.5089
182.590129 54.282 45.9106
183.913252 55.029 47.6846
185.245964 56.186 50.2820
186.588332 57.420 46.3337
187.940428 58.280 37.2124
189.302322 58.672 26.7805
190.674085 58.644 15.4896
192.055788 58.093 2.4221
193.447503 56.844 -10.6094
194.849303 54.869 -20.9689
196.261262 52.485 -28.8729
197.683452 51.239 -34.3945
199.115948 53.136 117.6664
200.558824 56.107 102.2812
202.012156 58.370 83.6709
203.476019 59.685 65.4316
204.950490 60.152 48.9600
206.435646 59.935 35.7949
207.931564 59.448 29.7000
209.438322 59.495 31.9814
210.955998 60.256 30.1390
212.484672 60.810 17.5386
214.024424 60.409 0.6107
215.575333 58.931 -11.3505
217.137481 57.048 -3.6031
218.710948 56.389 17.7379
220.295818 57.141 20.0089
221.892172 57.829 10.4369
223.500094 57.606 -3.7152
225.119668 56.260 -13.9302
226.750978 54.217 -8.0748
228.394109 52.669 8.6985
230.049147 52.828 27.2930
231.716178 54.686 45.7852
233.395289 57.034 49.4421
235.086567 59.031 43.1420
236.790102 60.353 30.8431
238.505980 60.799 14.7399
240.234293 60.250 -1.4889
241.975130 58.751 -12.5212
243.728581 56.724 -11.1255
245.494739 55.318 10.0320
247.273695 55.484 25.6628
249.065542 56.565 29.4771
250.870374 58.205 35.9305
252.688284 60.226 39.6616
254.519367 62.026 33.3397
256.363720 63.254 21.7239
258.221437 63.942 9.3975
260.092616 64.143 -3.3837
261.977354 63.791 -16.3361
263.875750 62.887 -26.3401
265.787903 61.755 -29.6204
267.713911 61.008 -27.2766
269.653877 60.840 -28.2653
271.607900 60.624 -36.5518
273.576083 59.771 -47.0482
275.558528 58.343 -52.5657
277.555338 57.594 -30.5161
279.566619 58.846 4.7802
281.592474 60.443 -2.4531
283.633009 60.987 -18.7528
285.688331 60.709 -26.3546
287.758546 60.913 -17.9849
289.843763 62.186 -13.7452
291.944090 63.585 -21.5864
294.059638 64.467 -34.6731
296.190515 64.755 -48.7714
298.336833 64.467 -63.4192
300.498705 63.509 -78.1230
302.676243 61.812 -89.3003
304.869559 59.883 -83.2329
307.078770 59.700 -48.9783
309.303989 61.786 -36.2107
311.545334 64.118 -42.9448
313.802919 65.746 -58.5706
316.076865 66.610 -76.3979
318.367288 66.914 -93.5947
320.674309 66.761 -110.9255
322.998047 66.105 -127.8594
325.338624 64.994 -141.8125
327.696162 63.688 -151.5139
330.070783 62.508 -158.9736
332.462612 61.499 -167.6699
334.871773 60.463 -176.5151
337.298392 59.514 178.8660
339.742595 59.226 178.2339
342.204510 59.740 173.3557
344.684265 60.351 159.8462
347.181989 60.539 142.7310
349.697813 60.298 125.9458
352.231868 59.826 110.8679
354.784285 59.328 96.8208
357.355198 58.830 82.4351
359.944741 58.271 68.6548
362.553049 57.636 55.3914
365.180258 56.860 42.4351
367.826505 55.934 31.1946
370.491927 54.836 19.3730
373.176665 53.431 10.4995
375.880856 52.484 30.3010
378.604644 53.251 49.7793
381.348169 54.649 42.7964
384.111575 55.717 32.3604
386.895006 56.766 26.5605
389.698607 57.993 19.3081
392.522524 59.011 6.0977
395.366904 59.501 -10.5237
398.231895 59.318 -28.7800
401.117648 58.330 -46.7249
404.024312 56.561 -56.3816
406.952038 54.807 -45.7454
409.900981 54.371 -38.3091
412.871292 55.083 -40.6123
415.863128 55.864 -52.1143
418.876643 55.980 -69.5767
421.911996 55.830 -62.0232
424.969344 56.396 -41.8887
428.048847 57.120 -57.9197
431.150666 57.696 -72.3401
434.274961 58.794 -81.9763
437.421897 60.079 -101.1665
440.591636 60.690 -129.6819
443.784345 60.212 -162.0513
447.000189 58.576 167.3230
450.239337 56.051 146.6448
453.501956 53.887 148.0588
456.788219 53.725 143.7615
460.098294 54.146 118.4868
463.432356 53.770 92.0789
466.790578 52.839 70.7200
470.173135 51.636 50.8760
473.580203 50.432 36.1707
477.011961 51.058 46.7971
480.468586 54.282 102.5361
483.950259 57.521 92.8081
487.457163 59.552 63.4863
490.989478 60.359 33.7559
494.547390 60.387 9.6328
498.131084 60.218 -9.1306
501.740748 60.025 -28.1729
505.376568 59.591 -48.2339
509.038735 58.746 -69.0894
512.727439 57.359 -88.3918
516.442874 55.713 -102.0557
520.185232 54.484 -116.7825
523.954708 53.955 -140.6460
527.751500 54.128 -177.6394
531.575805 54.360 114.9839
535.427822 53.747 25.2693
539.307753 52.288 -34.9211
543.215800 50.976 -70.5049
547.152165 51.542 -85.6353
551.117055 54.122 -75.5793
555.110677 56.569 -97.3584
559.133237 57.799 -133.8606
563.184947 58.064 -166.3984
567.266018 58.086 168.7966
571.376661 58.555 150.4946
575.517092 59.784 134.8015
579.687526 61.367 115.6262
583.888181 62.654 90.5413
588.119275 63.241 60.8374
592.381030 62.889 27.7673
596.673667 61.280 -6.0864
600.997410 58.267 -31.0784
605.352485 54.702 12.4531
609.739119 53.472 65.8879
614.157540 54.597 49.8389
618.607979 55.668 30.8799
623.090667 57.037 26.2202
627.605839 59.109 19.9758
632.153730 60.649 -9.4546
636.734576 61.053 -49.9517
641.348617 60.256 -98.3362
645.996094 58.159 -152.2761
650.677248 55.437 163.7739
655.392323 54.695 140.0891
660.141566 56.299 113.6138
664.925224 58.184 87.6770
669.743546 59.797 64.6436
674.596784 60.805 39.2249
679.485191 60.906 12.4226
684.409020 60.156 -11.3677
689.368530 59.082 -27.3218
694.363979 58.725 -41.4924
699.395626 59.170 -66.3867
704.463736 59.532 -104.5315
709.568570 59.126 -154.7378
714.710396 57.547 152.2131
719.889483 55.321 128.1794
725.106099 54.895 136.6306
730.360516 56.742 117.1687
735.653010 58.474 88.3452
740.983855 59.216 57.4268
746.353329 58.808 27.5508
751.761713 57.362 22.1406
757.209288 56.152 54.0776
762.696339 56.243 49.0999
768.223151 56.835 34.6172
773.790013 56.847 16.3530
779.397214 56.053 0.4033
785.045047 54.820 0.9624
790.733808 54.079 21.2871
796.463791 54.609 46.1050
802.235296 55.995 42.5063
808.048623 57.438 34.4092
813.904077 59.093 27.0723
819.801961 60.769 12.0967
825.742584 61.819 -13.5010
831.726255 61.460 -49.0093
837.753287 59.390 -87.4048
843.823992 56.617 84.3660
849.938689 55.961 54.4631
856.097695 57.893 52.9888
862.301332 59.836 44.0852
868.549922 60.765 23.4834
874.843793 61.658 17.2168
881.183272 63.490 18.6914
887.568689 65.190 -0.3018
894.000378 65.792 -27.7148
900.478673 65.135 -54.0684
907.003913 63.623 -74.7578
913.576437 61.835 -92.2041
920.196588 59.971 -111.7563
926.864712 57.441 -135.0391
933.581156 53.945 -152.7729
940.346270 50.525 -176.4858
947.160407 49.027 105.5088
954.023921 50.484 66.0454
960.937172 53.520 51.1836
967.900519 56.033 29.8950
974.914325 57.333 0.9873
981.978956 57.947 -7.1816
989.094780 59.009 43.9502
996.262169 60.293 24.6304
1003.481495 61.295 5.2051
1010.753136 62.145 -12.0352
1018.077470 62.140 -35.4185
1025.454879 61.000 -55.5122
1032.885748 59.153 -69.6558
1040.370463 57.086 -78.9395
1047.909417 56.087 -58.9893
1055.503000 57.319 -26.1836
1063.151610 59.042 -39.5278
1070.855645 60.038 -63.6396
1078.615506 59.604 -93.1714
1086.431599 57.478 -113.2451
1094.304330 54.653 -90.4497
1102.234110 53.495 -72.0996
1110.221353 54.056 -85.6211
1118.266475 55.448 -82.0981
1126.369895 57.624 -1.4854
1134.532035 58.830 -36.1475
1142.753322 58.133 -69.6714
1151.034184 56.201 -86.4688
1159.375052 54.927 -87.4697
1167.776361 54.823 -100.4497
1176.238550 54.123 -117.7290
1184.762060 52.677 -110.5469
1193.347334 51.371 -120.9160
1201.994821 51.417 -139.5591
1210.704971 52.144 140.7773
1219.478238 52.300 40.5132
1228.315080 51.483 -7.7686
1237.215957 50.519 -30.1362
1246.181334 50.890 37.2280
1255.211678 53.454 51.6611
1264.307459 56.650 41.5513
1273.469152 58.888 21.4771
1282.697235 59.578 -4.7656
1291.992188 59.387 -21.4556
1301.354495 59.612 -31.1108
1310.784647 60.390 -43.6416
1320.283132 61.060 -61.7651
1329.850448 61.213 -83.9233
1339.487093 60.719 -109.8994
1349.193569 59.100 -136.3877
1358.970381 56.323 -124.0410
1368.818041 54.080 -102.6528
1378.737061 53.903 -119.9888
1388.727958 55.454 7.8325
1398.791253 57.197 -18.5244
1408.927471 58.217 -52.4688
1419.137140 59.105 -66.8247
1429.420793 60.264 -79.6577
1439.778965 60.464 -117.8999
1450.212197 58.814 -161.2002
1460.721033 56.277 -2.0254
1471.306019 55.669 -39.6533
1481.967709 56.259 -72.9126
1492.706658 56.262 -47.2285
1503.523426 56.076 -32.0259
1514.418576 56.439 -52.2173
1525.392678 57.382 -54.3008
1536.446302 59.178 -3.1987
1547.580025 61.164 -22.2935
1558.794428 62.576 -45.2964
1570.090095 63.577 -65.9448
1581.467615 64.067 -86.7891
1592.927581 64.108 -105.4180
1604.470591 64.003 -120.8438
1616.097246 63.773 -139.7178
1627.808153 62.823 -160.5791
1639.603922 61.350 -175.9272
1651.485168 60.075 162.6055
1663.452510 59.064 127.0620
1675.506573 59.083 27.2393
1687.647984 60.964 -59.9795
1699.877377 62.955 -102.7710
1712.195390 63.316 -142.0498
1724.602663 62.499 -169.9155
1737.099845 62.404 164.9268
1749.687587 62.630 120.5640
1762.366544 61.452 38.4482
1775.137379 59.443 -61.7588
1788.000756 58.748 -96.3760
1800.957346 59.112 -124.0815
1814.007826 59.022 -148.2329
1827.152874 58.520 -166.3374
1840.393177 57.636 179.7041
1853.729425 56.557 171.7183
1867.162312 55.995 161.7114
1880.692540 56.685 160.4531
1894.320813 58.142 -160.4741
1908.047843 58.946 -166.1616
1921.874344 59.361 171.0376
1935.801038 59.602 139.1582
