* Measurement data measured by REW V5.31
* Source: Scarlett 2i4 USB, MICROPHONE, R, volume: no control. Timing signal peak level -37.2 dBFS, measurement signal peak level -31.4 dBFS
* Format: 512k Log Swept Sine, 1 sweep at -18.0 dBFS using an acoustic timing reference
* Dated: Apr 24, 2024 6:10:43 PM
* REW Settings:
*  C-weighting compensation: Off
*  Target level: 75.0 dB
* Note: ; Delay -0.0024 ms (-0.83 mm, -0.03 in) using estimated IR delay relative to Acoustic reference played from SPEAKER L with no timing offset
* Measurement: qrd-fr-p1-r-dup
* Smoothing: 1/48 octave
* Frequency Step: 96 ppo
* Start Frequency: 10.093689 Hz
*
* Freq(Hz) SPL(dB) Phase(degrees)
10.093689 18.468 37.7822
10.166832 19.105 37.8345
10.240505 19.868 37.3644
10.314712 20.649 36.3994
10.389457 21.423 34.9501
10.464743 22.140 32.9983
10.540575 22.772 30.6166
10.616956 23.345 27.9808
10.693891 23.865 25.1988
10.771383 24.333 22.3099
10.849437 24.745 19.1320
10.928057 25.103 15.6898
11.007246 25.407 12.1718
11.087009 25.660 8.7062
11.167350 25.864 5.1836
11.248273 26.014 1.3679
11.329783 26.110 -2.5380
11.411883 26.152 -6.3385
11.494578 26.138 -10.0244
11.577873 26.069 -13.9665
11.661771 25.939 -18.0068
11.746277 25.742 -21.9093
11.831395 25.477 -25.5761
11.917130 25.146 -29.4022
12.003487 24.735 -33.2715
12.090469 24.228 -36.9174
12.178081 23.621 -40.1735
12.266329 22.920 -43.3435
12.355216 22.089 -46.2950
12.444747 21.076 -48.6719
12.534926 19.791 -50.0652
12.625760 18.278 -50.2435
12.717251 16.754 -48.5567
12.809406 15.445 -43.7922
12.902228 14.309 -33.0829
12.995723 13.461 -14.7942
13.089895 13.249 5.7243
13.184750 14.022 20.3316
13.280292 15.655 28.6942
13.376526 17.519 32.4935
13.473458 19.092 33.4757
13.571093 20.324 32.5902
13.669434 21.363 30.6627
13.768489 22.261 28.2458
13.868261 23.031 25.4365
13.968756 23.664 22.1204
14.069979 24.194 18.6723
14.171936 24.650 15.3009
14.274632 25.024 11.6931
14.378072 25.326 8.0063
14.482261 25.573 4.4963
14.587206 25.765 0.9882
14.692910 25.905 -2.5576
14.799381 26.003 -5.9298
14.906624 26.063 -9.1387
15.014643 26.085 -12.3103
15.123446 26.079 -15.3027
15.233036 26.048 -18.0548
15.343421 25.994 -20.6686
15.454606 25.926 -23.0759
15.566596 25.850 -25.2080
15.679398 25.767 -27.1062
15.793018 25.689 -28.7789
15.907460 25.626 -30.1805
16.022732 25.578 -31.3055
16.138840 25.559 -32.2611
16.255788 25.579 -33.0335
16.373585 25.637 -33.6149
16.492234 25.738 -34.2092
16.611744 25.886 -34.8032
16.732119 26.074 -35.4164
16.853367 26.290 -36.2370
16.975494 26.533 -37.2365
17.098505 26.788 -38.3994
17.222408 27.035 -39.7879
17.347209 27.274 -41.4050
17.472914 27.487 -43.1018
17.599530 27.661 -44.8748
17.727063 27.798 -46.7337
17.855521 27.889 -48.3746
17.984909 27.931 -49.8770
18.115235 27.935 -51.1066
18.246506 27.914 -51.7710
18.378727 27.876 -51.9483
18.511907 27.870 -51.5454
18.646052 27.922 -50.4125
18.781169 28.060 -48.7933
18.917265 28.335 -47.0337
19.054347 28.747 -45.1029
19.192423 29.268 -43.7304
19.331499 29.891 -42.9521
19.471583 30.565 -42.8524
19.612682 31.232 -43.6792
19.754804 31.880 -45.1509
19.897956 32.466 -47.1727
20.042144 32.979 -49.7728
20.187378 33.406 -52.5624
20.333664 33.737 -55.5674
20.481010 33.975 -58.6301
20.629424 34.119 -61.4156
20.778913 34.175 -64.0797
20.929486 34.162 -66.1597
21.081150 34.088 -67.7369
21.233912 33.998 -68.6286
21.387782 33.912 -68.6896
21.542767 33.883 -68.1424
21.698874 33.949 -66.9641
21.856113 34.121 -65.5208
22.014492 34.415 -64.1780
22.174018 34.800 -63.0542
22.334700 35.238 -62.5111
22.496546 35.704 -62.4184
22.659566 36.153 -62.8000
22.823766 36.576 -63.5354
22.989157 36.960 -64.4026
23.155745 37.308 -65.3835
23.323542 37.632 -66.2471
23.492554 37.941 -67.0277
23.662790 38.260 -67.6615
23.834261 38.595 -68.1902
24.006973 38.959 -68.7298
24.180938 39.349 -69.2979
24.356163 39.760 -70.0421
24.532658 40.182 -70.9266
24.710431 40.604 -71.9928
24.889493 41.020 -73.1686
25.069853 41.428 -74.3953
25.251519 41.837 -75.6337
25.434502 42.257 -76.8122
25.618811 42.704 -78.0249
25.804456 43.189 -79.2391
25.991445 43.718 -80.7187
26.179790 44.288 -82.4431
26.369500 44.883 -84.6986
26.560584 45.484 -87.4153
26.753053 46.065 -90.7345
26.946917 46.605 -94.5105
27.142185 47.085 -98.7773
27.338869 47.492 -103.2987
27.536977 47.819 -108.0961
27.736522 48.063 -112.9014
27.937512 48.228 -117.6950
28.139959 48.321 -122.3322
28.343872 48.358 -126.7129
28.549264 48.350 -130.8335
28.756143 48.318 -134.6404
28.964522 48.273 -138.2169
29.174411 48.223 -141.6040
29.385821 48.166 -144.9275
29.598763 48.091 -148.2215
29.813248 47.982 -151.5525
30.029287 47.816 -154.8067
30.246891 47.578 -157.9480
30.466073 47.253 -160.6802
30.686842 46.847 -162.7739
30.909212 46.379 -163.9342
31.133193 45.903 -163.8019
31.358797 45.502 -162.3183
31.586035 45.261 -159.5026
31.814921 45.267 -156.0584
32.045465 45.522 -152.7217
32.277680 45.986 -150.1071
32.511577 46.569 -148.6230
32.747169 47.202 -148.1941
32.984469 47.843 -148.6689
33.223488 48.465 -149.8557
33.464239 49.063 -151.6130
33.706735 49.631 -153.8557
33.950987 50.168 -156.5282
34.197010 50.665 -159.5998
34.444816 51.117 -163.0062
34.694417 51.519 -166.6914
34.945827 51.868 -170.5960
35.199059 52.168 -174.6298
35.454126 52.423 -178.7570
35.711041 52.638 177.0340
35.969818 52.816 172.7378
36.230470 52.956 168.3326
36.493011 53.051 163.8121
36.757455 53.090 159.2006
37.023814 53.061 154.5522
37.292104 52.955 150.0004
37.562338 52.773 145.7595
37.834530 52.532 142.0120
38.108695 52.264 138.9109
38.384846 52.016 136.5376
38.662999 51.842 134.7955
38.943167 51.787 133.3083
39.225365 51.852 131.6247
39.509608 52.007 129.3953
39.795911 52.204 126.4537
40.084289 52.398 122.8226
40.374756 52.559 118.6641
40.667328 52.686 114.1906
40.962020 52.800 109.5236
41.258848 52.930 104.6172
41.557827 53.099 99.2750
41.858972 53.310 93.2130
42.162299 53.543 86.1535
42.467824 53.759 77.9069
42.775564 53.914 68.4082
43.085533 53.970 57.7074
43.397749 53.898 45.9370
43.712227 53.687 33.2856
44.028983 53.335 19.9576
44.348036 52.853 6.1628
44.669400 52.263 -7.8705
44.993093 51.599 -21.8832
45.319131 50.905 -35.5820
45.647532 50.230 -48.6481
45.978313 49.629 -60.7690
46.311491 49.152 -71.6899
46.647083 48.842 -81.2705
46.985107 48.726 -89.5277
47.325581 48.810 -96.6428
47.668521 49.074 -102.9118
48.013947 49.474 -108.6381
48.361876 49.954 -114.0120
48.712326 50.466 -119.0446
49.065315 50.987 -123.5952
49.420863 51.530 -127.4847
49.778987 52.136 -130.6537
50.139706 52.848 -133.2867
50.503039 53.688 -135.7917
50.869005 54.640 -138.6256
51.237623 55.665 -142.1046
51.608912 56.724 -146.3561
51.982891 57.790 -151.4144
52.359580 58.843 -157.3287
52.739000 59.861 -164.1924
53.121168 60.809 -172.0908
53.506106 61.646 178.9691
53.893833 62.330 169.0806
54.284370 62.824 158.4283
54.677737 63.100 147.2802
55.073955 63.139 135.9598
55.473043 62.932 124.8297
55.875024 62.483 114.2762
56.279917 61.805 104.6752
56.687745 60.930 96.4511
57.098527 59.914 89.9948
57.512287 58.834 85.5461
57.929045 57.790 83.0892
58.348822 56.874 82.3170
58.771642 56.153 82.6328
59.197525 55.650 83.4107
59.626495 55.352 84.1606
60.058573 55.228 84.5286
60.493782 55.231 84.2535
60.932145 55.314 83.1852
61.373685 55.429 81.2889
61.818424 55.536 78.6218
62.266386 55.604 75.3118
62.717593 55.614 71.5090
63.172071 55.556 67.3742
63.629842 55.428 63.0558
64.090930 55.232 58.6631
64.555359 54.974 54.3148
65.023154 54.669 50.1414
65.494339 54.343 46.2349
65.968938 54.035 42.5344
66.446976 53.779 38.7399
66.928478 53.571 34.3681
67.413469 53.369 29.0429
67.901975 53.111 22.7185
68.394021 52.757 15.6307
68.889632 52.314 7.9817
69.388835 51.825 -0.2908
69.891655 51.339 -9.6843
70.398118 50.870 -20.9788
70.908252 50.395 -34.9099
71.422083 49.868 -51.8899
71.939636 49.245 -72.1139
72.460941 48.480 -95.1069
72.986023 47.500 -120.0680
73.514909 46.177 -145.3149
74.047629 44.352 -169.0028
74.584208 42.146 172.6646
75.124676 41.347 -153.2058
75.669061 43.780 -78.9543
76.217390 47.107 -89.4019
76.769692 49.949 -103.2864
77.325997 52.247 -116.7649
77.886333 54.153 -129.2737
78.450730 55.789 -140.9924
79.019216 57.219 -152.3357
79.591822 58.450 -163.7279
80.168577 59.460 -175.2955
80.749512 60.238 173.1455
81.334656 60.801 161.9399
81.924040 61.193 151.2439
82.517696 61.441 140.8881
83.115653 61.530 130.6077
83.717943 61.411 120.3676
84.324598 61.033 110.5094
84.935649 60.358 101.6489
85.551128 59.382 94.7837
86.171066 58.185 91.6475
86.795497 57.076 94.4231
87.424453 56.620 102.3704
88.057967 57.075 109.6190
88.696071 58.093 112.7405
89.338800 59.323 112.5817
89.986185 60.608 109.7351
90.638262 61.824 104.0225
91.295065 62.856 95.6418
91.956626 63.623 85.0605
92.622982 64.058 72.5640
93.294166 64.058 58.4932
93.970214 63.508 43.7727
94.651161 62.325 30.1780
95.337042 60.528 20.3422
96.027894 58.322 17.1714
96.723752 56.145 21.3579
97.424652 54.504 29.3296
98.130631 53.625 37.6366
98.841726 53.449 45.3684
99.557974 53.835 51.6604
100.279412 54.577 55.0668
101.006078 55.408 54.7408
101.738010 56.094 51.2579
102.475245 56.514 45.9556
103.217823 56.647 40.0664
103.965782 56.532 34.5144
104.719161 56.252 30.0464
105.477999 55.952 27.1713
106.242336 55.807 25.4358
107.012212 55.883 23.0043
107.787666 56.055 18.3724
108.568740 56.142 11.7280
109.355474 56.061 3.9385
110.147909 55.806 -4.5381
110.946086 55.393 -13.5112
111.750047 54.861 -22.9651
112.559834 54.243 -33.3754
113.375489 53.530 -45.2450
114.197055 52.724 -58.5210
115.024574 51.922 -73.3016
115.858089 51.259 -90.3723
116.697645 50.791 -109.8977
117.543284 50.535 -130.2875
118.395051 50.532 -149.3062
119.252990 50.782 -165.5496
120.117147 51.230 -178.5170
120.987565 51.865 171.9628
121.864291 52.735 165.3096
122.747370 53.823 159.7789
123.636848 54.989 153.6788
124.532771 56.084 146.5865
125.435187 57.017 138.7471
126.344142 57.747 130.6224
127.259684 58.281 122.7277
128.181860 58.648 115.3258
129.110718 58.877 108.6040
130.046308 59.018 102.8452
130.988677 59.140 98.0315
131.937875 59.284 93.7014
132.893951 59.442 89.2770
133.856956 59.554 84.4193
134.826938 59.546 79.1866
135.803950 59.369 74.2910
136.788041 59.067 70.8761
137.779264 58.773 69.4355
138.777669 58.628 69.3763
139.783309 58.689 69.5471
140.796237 58.917 69.1262
141.816504 59.230 67.6580
142.844165 59.504 64.7108
143.879273 59.606 60.5656
144.921881 59.448 56.3423
145.972045 59.078 54.1290
147.029819 58.794 56.3176
148.095257 59.046 62.0804
149.168417 59.948 66.3936
150.249353 61.175 66.3528
151.338121 62.406 62.5255
152.434780 63.481 55.9138
153.539385 64.330 47.2491
154.651995 64.912 36.9982
155.772667 65.184 25.5264
156.901460 65.104 13.3740
158.038432 64.650 1.3413
159.183644 63.849 -9.5538
160.337154 62.801 -18.4257
161.499023 61.672 -25.5400
162.669312 60.560 -32.9154
163.848081 59.354 -42.4730
165.035392 57.786 -54.4170
166.231306 55.580 -67.5688
167.435887 52.589 -79.6882
168.649196 49.268 -74.6199
169.871298 47.951 58.7053
171.102255 49.535 57.0743
172.342133 51.519 51.0597
173.590995 52.961 43.3193
174.848907 53.916 35.9260
176.115934 54.583 28.8397
177.392143 54.944 19.1804
178.677599 54.750 5.8020
179.972371 53.792 -10.2284
181.276525 52.120 -29.0526
182.590129 50.768 -62.7000
183.913252 51.924 143.9351
185.245964 54.653 117.8438
186.588332 57.090 100.0223
187.940428 58.898 84.4929
189.302322 60.183 70.4181
190.674085 61.016 56.5693
192.055788 61.362 42.4524
193.447503 61.223 29.3217
194.849303 60.688 18.1613
196.261262 59.851 8.9202
197.683452 58.769 1.9174
199.115948 57.593 -1.1865
200.558824 56.621 -1.4883
202.012156 55.855 -5.7726
203.476019 54.769 -15.3038
204.950490 52.922 -25.6498
206.435646 50.490 -30.1323
207.931564 49.382 63.7681
209.438322 51.619 98.4977
210.955998 55.039 100.8398
212.484672 58.101 96.7552
214.024424 60.403 85.1597
215.575333 61.882 70.2417
217.137481 62.608 55.2059
218.710948 62.737 42.4969
220.295818 62.559 33.9424
221.892172 62.322 27.3365
223.500094 61.968 20.2679
225.119668 61.469 16.1254
226.750978 61.105 15.8806
228.394109 60.924 13.4963
230.049147 60.647 9.5900
231.716178 60.246 8.2188
233.395289 59.823 7.2706
235.086567 59.285 5.7526
236.790102 58.795 9.3173
238.505980 59.158 21.8605
240.234293 60.795 35.3611
241.975130 62.835 37.1129
243.728581 64.360 27.8013
245.494739 65.088 15.1107
247.273695 65.252 5.6743
249.065542 65.376 1.2844
250.870374 65.728 -3.2799
252.688284 66.120 -10.6338
254.519367 66.378 -19.1447
256.363720 66.410 -29.2631
258.221437 66.020 -41.5051
260.092616 65.004 -53.5117
261.977354 63.355 -59.9988
263.875750 61.516 -55.6776
265.787903 60.348 -44.9403
267.713911 60.308 -36.3846
269.653877 60.952 -33.0658
271.607900 61.585 -36.3307
273.576083 61.931 -41.0000
275.558528 62.355 -41.1239
277.555338 63.232 -40.9929
279.566619 64.238 -48.0419
281.592474 64.830 -61.6766
283.633009 64.607 -79.7361
285.688331 63.315 -97.4763
287.758546 60.992 -105.9810
289.843763 58.332 -89.7729
291.944090 56.869 -67.3009
294.059638 56.737 -65.3441
296.190515 56.722 -68.2488
298.336833 57.013 -60.0403
300.498705 58.475 -43.0377
302.676243 60.370 -42.7262
304.869559 61.554 -55.5360
307.078770 61.685 -70.6035
309.303989 61.246 -76.1011
311.545334 61.506 -66.5344
313.802919 62.706 -65.8420
316.076865 63.748 -77.3611
318.367288 64.167 -90.9756
320.674309 64.101 -102.6743
322.998047 63.789 -112.1680
325.338624 63.410 -120.1440
327.696162 63.123 -126.5015
330.070783 63.139 -131.3481
332.462612 63.421 -139.0115
334.871773 63.501 -152.2166
337.298392 62.999 -166.4922
339.742595 62.103 -175.0552
342.204510 61.418 -179.1177
344.684265 61.107 173.4302
347.181989 60.841 163.7771
349.697813 60.618 156.0273
352.231868 60.793 150.7891
354.784285 61.437 142.5564
357.355198 62.085 128.2402
359.944741 62.277 109.7307
362.553049 61.772 90.5464
365.180258 60.710 76.9404
367.826505 59.720 69.9507
370.491927 59.286 62.9180
373.176665 59.236 53.1072
375.880856 59.120 39.9851
378.604644 58.547 25.1316
381.348169 57.422 13.8940
384.111575 56.255 12.7529
386.895006 55.888 15.6477
389.698607 56.069 9.5684
392.522524 55.884 -1.4653
395.366904 55.562 -1.9187
398.231895 56.274 5.6536
401.117648 57.877 2.6099
404.024312 59.365 -10.4199
406.952038 60.204 -29.4316
409.900981 60.231 -50.7937
412.871292 59.413 -71.8372
415.863128 57.837 -88.0042
418.876643 55.957 -96.6128
421.911996 54.348 -105.0637
424.969344 53.196 -114.1895
428.048847 52.823 -122.5334
431.150666 52.979 -145.9800
434.274961 52.656 173.4622
437.421897 51.398 113.0933
440.591636 49.408 6.7065
443.784345 47.832 -63.8660
447.000189 48.364 -71.9795
450.239337 49.989 -101.3264
453.501956 51.153 -142.4260
456.788219 52.314 -173.8884
460.098294 54.177 162.7065
463.432356 56.394 140.4077
466.790578 58.486 117.8540
470.173135 60.065 92.7974
473.580203 60.800 65.6565
477.011961 60.644 40.9919
480.468586 59.958 22.8047
483.950259 59.280 9.8623
487.457163 58.761 -3.8062
490.989478 58.286 -16.2515
494.547390 58.674 -17.4944
498.131084 60.281 -22.8918
501.740748 61.591 -49.6079
505.376568 61.711 -87.6465
509.038735 60.808 -131.7629
512.727439 59.547 173.7871
516.442874 58.565 110.1719
520.185232 57.949 57.0999
523.954708 57.517 19.1357
527.751500 57.039 -11.7727
531.575805 55.978 -41.5989
535.427822 54.292 -62.5649
539.307753 53.821 -19.4529
543.215800 55.300 -10.1589
547.152165 56.373 -45.3928
551.117055 56.237 -89.7334
555.110677 55.624 -149.6182
559.133237 56.007 124.4849
563.184947 57.790 65.0447
567.266018 59.503 21.7903
571.376661 60.030 -19.2734
575.517092 59.172 -56.4346
579.687526 57.355 -89.3550
583.888181 55.092 -124.9326
588.119275 52.796 -179.8232
592.381030 50.876 57.8643
596.673667 49.616 -3.6650
600.997410 49.282 -33.2861
605.352485 50.238 -14.6680
609.739119 51.432 1.1377
614.157540 52.161 -20.2515
618.607979 53.554 -30.5059
623.090667 55.406 -55.8984
627.605839 56.461 -99.1016
632.153730 56.811 -151.1670
636.734576 57.415 -26.9526
641.348617 58.459 -86.1230
645.996094 59.258 -141.6299
650.677248 59.884 170.2202
655.392323 60.221 125.0918
660.141566 59.546 84.4199
664.925224 57.934 57.2329
669.743546 56.599 42.1094
674.596784 56.226 23.8218
679.485191 55.794 -1.7021
684.409020 54.638 -29.1870
689.368530 53.112 -59.8584
694.363979 52.545 83.1328
699.395626 54.141 51.9116
704.463736 56.172 16.2349
709.568570 57.386 -23.8906
714.710396 57.724 -70.2876
719.889483 56.923 -125.5776
725.106099 55.127 -177.3457
730.360516 54.257 154.4766
735.653010 55.292 127.1802
740.983855 56.095 93.3662
746.353329 55.988 69.4185
751.761713 56.091 73.1260
757.209288 57.018 67.1060
762.696339 57.965 49.7485
768.223151 58.705 32.3457
773.790013 59.033 11.0435
779.397214 58.702 -7.5156
785.045047 58.861 23.2070
790.733808 60.250 23.9116
796.463791 61.211 -5.0410
802.235296 60.862 -36.5601
808.048623 59.562 -56.1680
813.904077 58.599 -48.9150
819.801961 58.214 -66.7573
825.742584 57.489 -97.1953
831.726255 56.732 -129.0342
837.753287 56.630 -163.3696
843.823992 57.636 164.3823
849.938689 59.374 134.9521
856.097695 61.035 106.4492
862.301332 62.038 77.5303
868.549922 62.189 50.9189
874.843793 62.159 35.9214
881.183272 63.108 35.2695
887.568689 64.411 17.8877
894.000378 64.798 -11.4268
900.478673 63.861 -41.4570
907.003913 61.728 -64.5161
913.576437 59.158 -79.9043
920.196588 57.385 -102.1870
926.864712 57.306 -144.5894
933.581156 58.379 148.2676
940.346270 59.133 92.2705
947.160407 59.398 56.7656
954.023921 59.492 31.5093
960.937172 59.152 10.6279
967.900519 58.320 -3.9722
974.914325 57.197 -15.1763
981.978956 55.971 -19.0757
989.094780 55.526 -13.8350
996.262169 56.539 17.9468
1003.481495 58.753 28.3838
1010.753136 60.802 14.1069
1018.077470 61.982 -4.7261
1025.454879 61.995 -25.1821
1032.885748 61.044 -39.1113
1040.370463 60.075 -43.0840
1047.909417 59.920 -44.8623
1055.503000 60.083 -58.1299
1063.151610 59.797 -77.6904
1070.855645 58.543 -101.2285
1078.615506 56.305 -94.7251
1086.431599 55.241 -34.8174
1094.304330 57.055 -22.2036
1102.234110 59.305 -37.9038
1110.221353 60.096 -73.3809
1118.266475 59.117 -114.7607
1126.369895 57.309 59.3359
1134.532035 56.693 5.7920
1142.753322 57.494 -16.1753
1151.034184 58.344 -37.0391
1159.375052 58.541 -58.0200
1167.776361 58.402 -79.4678
1176.238550 58.562 -93.1113
1184.762060 60.138 -27.9912
1193.347334 62.172 -50.7378
1201.994821 63.233 -92.3662
1210.704971 62.973 -140.5298
1219.478238 61.347 165.1289
1228.315080 58.899 112.6948
1237.215957 58.099 81.7866
1246.181334 59.189 44.3916
1255.211678 59.568 4.9473
1264.307459 58.726 -25.5210
1273.469152 57.076 -35.8896
1282.697235 56.045 -32.4990
1291.992188 56.826 -21.2534
1301.354495 58.914 -11.0381
1310.784647 60.545 -27.9297
1320.283132 61.163 -47.8252
1329.850448 61.412 -64.3462
1339.487093 61.549 -70.1221
1349.193569 62.008 -57.7544
1358.970381 62.488 -73.0669
1368.818041 62.714 -89.3384
1378.737061 62.716 -111.0312
1388.727958 61.565 -137.4854
1398.791253 59.540 -142.5581
1408.927471 58.047 -116.8560
1419.137140 56.614 -129.5801
1429.420793 54.711 -122.8652
1439.778965 53.475 -107.1494
1450.212197 53.442 -93.3291
1460.721033 54.397 -97.4058
1471.306019 55.161 -115.8809
1481.967709 55.813 -142.0938
1492.706658 56.520 154.7935
1503.523426 57.806 25.4229
1514.418576 58.710 -25.0244
1525.392678 58.779 -51.1724
1536.446302 58.608 -68.9707
1547.580025 58.325 -80.2217
1558.794428 58.971 -80.0254
1570.090095 60.583 -80.3081
1581.467615 61.794 -94.6694
1592.927581 62.266 -111.1484
1604.470591 62.603 -124.2036
1616.097246 62.778 -139.8779
1627.808153 62.454 -152.7671
1639.603922 62.263 -160.2939
1651.485168 62.030 -175.9985
1663.452510 61.297 167.6572
1675.506573 60.565 149.9580
1687.647984 59.520 123.4346
1699.877377 57.445 92.8931
1712.195390 55.472 51.5771
1724.602663 56.794 -118.3052
1737.099845 58.880 -151.8584
1749.687587 59.082 169.8755
1762.366544 58.170 139.5649
1775.137379 57.493 99.8931
1788.000756 56.839 -85.0430
1800.957346 56.584 -141.1987
1814.007826 56.657 -176.9595
1827.152874 56.480 152.9185
1840.393177 56.944 125.6812
1853.729425 57.344 -124.6606
1867.162312 56.899 -154.4995
1880.692540 55.876 178.6836
1894.320813 55.054 163.2778
1908.047843 54.606 147.4121
1921.874344 53.754 131.8242
1935.801038 52.763 118.4302
