* Measurement data measured by REW V5.31.1
* Source: Scarlett 2i4 USB, MICROPHONE, R, volume: no control
* Format: 512k Log Swept Sine, 1 sweep at -18.0 dBFS with no timing reference
* Dated: May 7, 2024 4:03:59 PM
* REW Settings:
*  C-weighting compensation: Off
*  Target level: 75.0 dB
* Note: ; 
* Measurement: front-l12-r12-p1-r
* Smoothing: 1/48 octave
* Frequency Step: 96 ppo
* Start Frequency: 10.093689 Hz
*
* Freq(Hz) SPL(dB) Phase(degrees)
10.093689 40.812 37.7591
10.166832 40.568 33.2545
10.240505 40.269 28.8246
10.314712 39.958 24.6206
10.389457 39.634 20.9855
10.464743 39.255 18.4029
10.540575 38.768 16.8656
10.616956 38.250 16.2674
10.693891 37.821 16.5997
10.771383 37.597 17.8043
10.849437 37.602 20.4576
10.928057 37.798 24.3548
11.007246 38.169 28.2550
11.087009 38.716 30.9408
11.167350 39.472 32.2624
11.248273 40.437 33.0613
11.329783 41.496 32.9075
11.411883 42.522 31.5484
11.494578 43.454 28.9702
11.577873 44.339 25.7822
11.661771 45.175 22.2402
11.746277 45.947 18.3827
11.831395 46.641 14.0470
11.917130 47.261 9.1999
12.003487 47.813 4.2253
12.090469 48.299 -0.6794
12.178081 48.720 -5.7198
12.266329 49.072 -11.2137
12.355216 49.356 -16.7449
12.444747 49.570 -21.9989
12.534926 49.716 -27.3199
12.625760 49.789 -33.0152
12.717251 49.783 -38.6398
12.809406 49.692 -43.8043
12.902228 49.520 -49.1193
12.995723 49.255 -54.6320
13.089895 48.875 -59.8548
13.184750 48.374 -64.4630
13.280292 47.755 -69.1056
13.376526 46.974 -73.5400
13.473458 45.956 -77.0488
13.571093 44.601 -79.3160
13.669434 43.036 -80.1492
13.768489 41.547 -78.4261
13.868261 40.298 -71.5812
13.968756 39.270 -55.7256
14.069979 38.822 -33.4463
14.171936 39.444 -16.4734
14.274632 41.168 -7.1790
14.378072 43.252 -3.5035
14.482261 45.012 -3.2363
14.587206 46.344 -5.2529
14.692910 47.425 -8.3316
14.799381 48.316 -11.6848
14.906624 49.027 -15.5459
15.014643 49.559 -19.9035
15.123446 49.949 -24.0238
15.233036 50.214 -27.9288
15.343421 50.348 -32.0535
15.454606 50.368 -35.7713
15.566596 50.281 -38.8236
15.679398 50.088 -41.6320
15.793018 49.826 -43.7869
15.907460 49.508 -44.8725
16.022732 49.150 -45.0172
16.138840 48.854 -44.2840
16.255788 48.677 -42.4443
16.373585 48.625 -39.6082
16.492234 48.757 -36.8251
16.611744 49.114 -34.2708
16.732119 49.631 -32.1801
16.853367 50.205 -31.3104
16.975494 50.822 -31.5000
17.098505 51.434 -32.4859
17.222408 51.970 -34.2609
17.347209 52.431 -36.8048
17.472914 52.804 -39.6387
17.599530 53.075 -42.7030
17.727063 53.246 -46.1037
17.855521 53.321 -49.2686
17.984909 53.296 -52.3735
18.115235 53.184 -55.3007
18.246506 52.997 -57.6065
18.378727 52.740 -59.4559
18.511907 52.458 -60.6733
18.646052 52.168 -60.9955
18.781169 51.907 -60.5645
18.917265 51.743 -59.5792
19.054347 51.682 -57.9122
19.192423 51.738 -56.2229
19.331499 51.923 -54.6856
19.471583 52.194 -53.4307
19.612682 52.501 -52.7821
19.754804 52.832 -52.6076
19.897956 53.139 -52.7230
20.042144 53.411 -53.1771
20.187378 53.652 -53.6425
20.333664 53.860 -53.9812
20.481010 54.057 -54.1997
20.629424 54.275 -54.1121
20.778913 54.524 -53.8090
20.929486 54.836 -53.5136
21.081150 55.215 -53.1788
21.233912 55.645 -53.2265
21.387782 56.119 -53.6497
21.542767 56.599 -54.5266
21.698874 57.057 -55.9568
21.856113 57.470 -57.6920
22.014492 57.814 -59.7070
22.174018 58.085 -61.8114
22.334700 58.278 -63.6956
22.496546 58.407 -65.3670
22.659566 58.501 -66.3914
22.823766 58.587 -66.8674
22.989157 58.731 -66.6599
23.155745 58.958 -65.8986
23.323542 59.319 -65.0674
23.492554 59.805 -64.2686
23.662790 60.382 -64.1877
23.834261 61.016 -64.6962
24.006973 61.634 -66.0432
24.180938 62.212 -67.9708
24.356163 62.707 -70.2720
24.532658 63.117 -72.7587
24.710431 63.441 -75.0023
24.889493 63.708 -76.9233
25.069853 63.957 -78.1109
25.251519 64.253 -78.7393
25.434502 64.656 -78.6695
25.618811 65.206 -78.6376
25.804456 65.918 -78.7484
25.991445 66.736 -79.9091
26.179790 67.617 -81.9772
26.369500 68.473 -85.3341
26.560584 69.266 -89.5971
26.753053 69.945 -94.7706
26.946917 70.493 -100.4030
27.142185 70.891 -106.5374
27.338869 71.134 -112.5785
27.536977 71.222 -118.6681
27.736522 71.162 -124.1617
27.937512 70.974 -129.0976
28.139959 70.687 -132.9995
28.343872 70.370 -135.8043
28.549264 70.081 -137.3142
28.756143 69.923 -137.8989
28.964522 69.930 -138.0033
29.174411 70.117 -138.2480
29.385821 70.408 -139.3198
29.598763 70.737 -141.2594
29.813248 71.013 -144.1453
30.029287 71.187 -147.5007
30.246891 71.233 -151.1872
30.466073 71.148 -154.5953
30.686842 70.961 -157.4989
30.909212 70.708 -159.6034
31.133193 70.466 -160.7587
31.358797 70.291 -161.1930
31.586035 70.225 -161.1203
31.814921 70.269 -161.1676
32.045465 70.376 -161.5011
32.277680 70.501 -162.2256
32.511577 70.600 -163.1045
32.747169 70.678 -163.7750
32.984469 70.769 -164.0475
33.223488 70.941 -163.7547
33.464239 71.257 -163.3431
33.706735 71.725 -163.3253
33.950987 72.311 -164.1892
34.197010 72.923 -166.3567
34.444816 73.482 -169.6340
34.694417 73.930 -173.7505
34.945827 74.234 -178.3850
35.199059 74.393 177.0321
35.454126 74.434 172.8344
35.711041 74.403 169.2513
35.969818 74.364 166.4621
36.230470 74.388 164.2650
36.493011 74.506 162.2020
36.757455 74.705 159.8670
37.023814 74.938 156.9386
37.292104 75.140 153.3096
37.562338 75.254 149.2441
37.834530 75.261 145.1040
38.108695 75.166 141.2352
38.384846 75.007 137.9634
38.662999 74.849 135.4835
38.943167 74.765 133.6195
39.225365 74.797 131.9092
39.509608 74.934 129.8680
39.795911 75.134 127.1691
40.084289 75.336 123.7370
40.374756 75.499 119.7347
40.667328 75.613 115.4577
40.962020 75.704 111.1232
41.258848 75.812 106.7269
41.557827 75.975 102.0415
41.858972 76.199 96.6994
42.162299 76.459 90.3378
42.467824 76.702 82.7283
42.775564 76.869 73.8261
43.085533 76.908 63.7389
43.397749 76.786 52.6667
43.712227 76.485 40.8512
44.028983 76.003 28.5180
44.348036 75.349 15.8572
44.669400 74.544 3.0261
44.993093 73.622 -9.8444
45.319131 72.627 -22.6388
45.647532 71.613 -35.2302
45.978313 70.646 -47.4441
46.311491 69.794 -59.0359
46.647083 69.132 -69.7202
46.985107 68.728 -79.2787
47.325581 68.623 -87.6970
47.668521 68.804 -95.1934
48.013947 69.202 -102.0555
48.361876 69.722 -108.4034
48.712326 70.295 -114.0905
49.065315 70.909 -118.8212
49.420863 71.611 -122.4205
49.778987 72.467 -125.1003
50.139706 73.501 -127.4718
50.503039 74.682 -130.1925
50.869005 75.951 -133.6171
51.237623 77.267 -137.7965
51.608912 78.619 -142.7491
51.982891 79.999 -148.6768
52.359580 81.369 -155.9236
52.739000 82.664 -164.7517
53.121168 83.802 -175.1698
53.506106 84.712 173.0720
53.893833 85.345 160.3549
54.284370 85.669 147.1385
54.677737 85.672 133.9507
55.073955 85.361 121.3557
55.473043 84.766 109.9252
55.875024 83.948 100.1602
56.279917 82.997 92.3647
56.687745 82.019 86.5002
57.098527 81.096 82.1134
57.512287 80.254 78.6609
57.929045 79.476 75.9251
58.348822 78.760 74.0220
58.771642 78.144 73.0162
59.197525 77.678 72.5793
59.626495 77.372 72.1268
60.058573 77.184 71.2660
60.493782 77.065 69.9607
60.932145 76.993 68.3160
61.373685 76.961 66.3054
61.818424 76.953 63.7800
62.266386 76.938 60.6702
62.717593 76.883 57.0863
63.172071 76.777 53.2458
63.629842 76.629 49.3290
64.090930 76.456 45.3954
64.555359 76.278 41.4295
65.023154 76.113 37.3649
65.494339 75.980 33.0580
65.968938 75.884 28.2247
66.446976 75.807 22.5417
66.928478 75.705 15.8042
67.413469 75.527 8.0408
67.901975 75.244 -0.5576
68.394021 74.861 -9.7756
68.889632 74.415 -19.6585
69.388835 73.950 -30.5522
69.891655 73.493 -43.0638
70.398118 73.033 -57.8001
70.908252 72.539 -75.2424
71.422083 71.969 -95.4478
71.939636 71.277 -118.3571
72.460941 70.401 -143.2886
72.986023 69.249 -169.7992
73.514909 67.720 162.4796
74.047629 65.834 131.4209
74.584208 64.241 83.9020
75.124676 64.695 -4.9556
75.669061 67.251 -51.9126
76.217390 70.206 -75.4417
76.769692 72.863 -93.0432
77.325997 75.107 -108.6687
77.886333 76.963 -123.3037
78.450730 78.500 -137.0691
79.019216 79.797 -150.0780
79.591822 80.895 -162.6736
80.168577 81.786 -175.2234
80.749512 82.438 172.2078
81.334656 82.841 159.8765
81.924040 83.007 148.0068
82.517696 82.940 136.5690
83.115653 82.600 125.5658
83.717943 81.919 115.5615
84.324598 80.876 108.0115
84.935649 79.600 104.9795
85.551128 78.464 108.0762
86.171066 78.007 115.9719
86.795497 78.480 123.8982
87.424453 79.595 128.2140
88.057967 80.943 128.6226
88.696071 82.299 126.1383
89.338800 83.578 121.4862
89.986185 84.734 115.0371
90.638262 85.742 107.1500
91.295065 86.597 98.0634
91.956626 87.283 87.6721
92.622982 87.734 75.8044
93.294166 87.856 62.7260
93.970214 87.584 49.2423
94.651161 86.903 36.4050
95.337042 85.861 25.1685
96.027894 84.538 16.1888
96.723752 83.032 9.8304
97.424652 81.452 6.3173
98.130631 79.935 5.7834
98.841726 78.659 7.8486
99.557974 77.771 10.9202
100.279412 77.249 13.0312
101.006078 76.933 13.7223
101.738010 76.704 13.4779
102.475245 76.499 12.1306
103.217823 76.216 9.5143
103.965782 75.783 6.6855
104.719161 75.267 4.9832
105.477999 74.830 4.4199
106.242336 74.584 3.7668
107.012212 74.519 1.8575
107.787666 74.546 -1.9867
108.568740 74.538 -8.1405
109.355474 74.355 -16.6740
110.147909 73.870 -27.0370
110.946086 73.036 -37.9608
111.750047 71.984 -48.5260
112.559834 70.981 -59.9011
113.375489 70.233 -74.9136
114.197055 69.771 -95.0900
115.024574 69.595 -119.1873
115.858089 69.744 -143.7648
116.697645 70.190 -165.5388
117.543284 70.797 176.8586
118.395051 71.436 163.3710
119.252990 72.049 153.2981
120.117147 72.627 146.0278
120.987565 73.270 141.9447
121.864291 74.170 140.5305
122.747370 75.327 138.8295
123.636848 76.524 134.9077
124.532771 77.582 129.1602
125.435187 78.421 122.3263
126.344142 79.018 115.0780
127.259684 79.394 108.1086
128.181860 79.601 101.8545
129.110718 79.707 96.6677
130.046308 79.817 92.9008
130.988677 80.028 89.8489
131.937875 80.306 86.1128
132.893951 80.527 81.3799
133.856956 80.588 76.0885
134.826938 80.428 70.9053
135.803950 80.059 67.1716
136.788041 79.635 66.1996
137.779264 79.392 67.7744
138.777669 79.471 70.0061
139.783309 79.804 70.9294
140.796237 80.220 70.2167
141.816504 80.615 68.6543
142.844165 80.958 66.6344
143.879273 81.232 64.2626
144.921881 81.453 62.2401
145.972045 81.733 61.4270
147.029819 82.201 61.2704
148.095257 82.861 60.1906
149.168417 83.610 57.4688
150.249353 84.351 53.2767
151.338121 85.030 47.7504
152.434780 85.601 40.9786
153.539385 86.036 33.1272
154.651995 86.302 24.2205
155.772667 86.353 14.3755
156.901460 86.145 3.9250
158.038432 85.641 -6.7527
159.183644 84.805 -17.1053
160.337154 83.630 -26.3853
161.499023 82.124 -34.4423
162.669312 80.234 -40.9701
163.848081 77.907 -42.8816
165.035392 75.410 -33.3156
166.231306 73.751 -9.6530
167.435887 73.782 8.2490
168.649196 74.671 13.8652
169.871298 75.538 14.5977
171.102255 76.216 14.0839
172.342133 76.778 13.1965
173.590995 77.376 12.8674
174.848907 78.059 10.8477
176.115934 78.540 3.8145
177.392143 78.500 -6.3519
178.677599 77.828 -17.0780
179.972371 76.471 -27.3159
181.276525 74.418 -34.6794
182.590129 72.328 -26.7236
183.913252 72.639 49.5424
185.245964 75.370 67.3584
186.588332 78.063 60.4673
187.940428 80.027 48.5514
189.302322 81.278 35.1277
190.674085 81.923 21.6865
192.055788 82.074 9.1870
193.447503 81.835 -1.8650
194.849303 81.290 -11.4200
196.261262 80.494 -19.4186
197.683452 79.533 -25.1503
199.115948 78.596 -28.2915
200.558824 77.875 -31.1548
202.012156 77.273 -37.7914
203.476019 76.373 -49.8777
204.950490 74.760 -66.1375
206.435646 72.370 -86.4241
207.931564 70.394 -159.0122
209.438322 71.318 96.9832
210.955998 73.854 80.4773
212.484672 76.036 67.7500
214.024424 77.615 56.9385
215.575333 78.818 48.6990
217.137481 79.856 42.0056
218.710948 80.775 35.0649
220.295818 81.492 26.8489
221.892172 81.877 17.2239
223.500094 81.880 7.9863
225.119668 81.633 1.1208
226.750978 81.284 -4.5432
228.394109 80.777 -10.6719
230.049147 79.994 -15.5620
231.716178 79.003 -16.9138
233.395289 78.004 -15.0659
235.086567 77.261 -9.9814
236.790102 77.348 1.0220
238.505980 78.859 18.0964
240.234293 81.197 26.5798
241.975130 83.287 20.9832
243.728581 84.672 8.7371
245.494739 85.387 -4.1311
247.273695 85.702 -14.6826
249.065542 85.899 -23.3049
250.870374 86.093 -31.9255
252.688284 86.215 -41.8884
254.519367 86.116 -53.5757
256.363720 85.641 -66.3345
258.221437 84.709 -78.4812
260.092616 83.354 -88.2268
261.977354 81.685 -95.4736
263.875750 79.736 -100.8767
265.787903 77.495 -101.1978
267.713911 75.250 -91.2122
269.653877 73.678 -76.5173
271.607900 73.173 -65.0996
273.576083 73.778 -51.9221
275.558528 75.371 -39.0544
277.555338 77.196 -37.3865
279.566619 78.492 -45.7778
281.592474 78.968 -57.8215
283.633009 78.683 -68.1101
285.688331 78.000 -72.1711
287.758546 77.574 -68.7939
289.843763 77.827 -65.1033
291.944090 78.441 -66.8218
294.059638 78.934 -72.6379
296.190515 79.171 -78.9509
298.336833 79.353 -83.0405
300.498705 79.724 -86.3147
302.676243 80.193 -92.7249
304.869559 80.399 -103.4148
307.078770 80.047 -115.7043
309.303989 79.189 -123.9734
311.545334 78.465 -123.1587
313.802919 78.666 -119.6538
316.076865 79.508 -124.8367
318.367288 80.184 -137.5422
320.674309 80.330 -153.4028
322.998047 79.882 -170.2893
325.338624 78.801 172.5559
327.696162 76.993 157.1714
330.070783 74.559 152.5667
332.462612 72.632 178.3955
334.871773 72.761 -165.3049
337.298392 73.920 -170.3284
339.742595 75.159 -176.6057
342.204510 76.586 178.6726
344.684265 78.032 169.2852
347.181989 79.098 154.7175
349.697813 79.669 139.1587
352.231868 79.963 126.1450
354.784285 80.284 115.3003
357.355198 80.640 103.3167
359.944741 80.818 89.8667
362.553049 80.767 77.6172
365.180258 80.691 68.0554
367.826505 80.788 59.4504
370.491927 81.022 49.5400
373.176665 81.198 37.6050
375.880856 81.144 24.3860
378.604644 80.732 10.2368
381.348169 79.813 -3.7876
384.111575 78.347 -14.0330
386.895006 76.736 -13.4165
389.698607 76.017 -3.2197
392.522524 76.456 -1.5981
395.366904 77.126 -8.4946
398.231895 77.553 -17.2578
401.117648 77.859 -24.8315
404.024312 78.204 -33.2285
406.952038 78.512 -44.0916
409.900981 78.692 -56.6660
412.871292 78.640 -71.6934
415.863128 78.247 -88.1599
418.876643 77.508 -104.9341
421.911996 76.430 -121.9421
424.969344 75.053 -137.3696
428.048847 73.658 -149.9358
431.150666 72.632 -162.5430
434.274961 72.156 -176.7600
437.421897 72.308 168.2666
440.591636 72.839 148.5940
443.784345 72.943 121.9045
447.000189 72.144 97.1699
450.239337 71.075 90.3640
453.501956 70.887 88.7722
456.788219 70.859 70.2485
460.098294 69.983 51.7542
463.432356 68.384 40.4221
466.790578 66.347 32.5120
470.173135 64.073 32.4905
473.580203 63.049 53.5071
477.011961 65.207 113.8125
480.468586 68.429 122.6528
483.950259 71.058 111.1277
487.457163 73.214 99.9321
490.989478 75.177 89.8196
494.547390 76.611 72.9031
498.131084 77.019 49.8694
501.740748 76.187 26.7505
505.376568 74.678 16.9163
509.038735 74.694 71.7900
512.727439 76.786 79.8792
516.442874 78.748 61.0134
520.185232 79.740 37.9634
523.954708 79.691 14.6409
527.751500 78.653 -7.1313
531.575805 76.614 -24.5068
535.427822 73.791 -24.8237
539.307753 71.562 2.9463
543.215800 71.274 10.5518
547.152165 71.499 -2.6968
551.117055 71.949 -9.6687
555.110677 73.813 67.9426
559.133237 76.066 59.8384
563.184947 77.462 35.6077
567.266018 77.923 12.9641
571.376661 77.478 -9.1201
575.517092 75.928 -27.2961
579.687526 73.493 -27.7195
583.888181 71.325 -15.2622
588.119275 70.574 -6.7185
592.381030 71.175 0.4502
596.673667 72.018 -5.6104
600.997410 72.426 -15.9736
605.352485 73.053 -13.0027
609.739119 74.080 -17.6426
614.157540 74.183 -42.6306
618.607979 72.686 -69.5378
623.090667 69.825 -88.2849
627.605839 66.803 -98.5957
632.153730 66.456 -26.0894
636.734576 68.644 -31.2312
641.348617 70.759 -102.7415
645.996094 72.162 -174.6343
650.677248 73.277 140.1096
655.392323 74.104 107.5625
660.141566 73.998 80.8762
664.925224 73.124 67.5020
669.743546 72.625 66.7576
674.596784 73.132 66.8765
679.485191 73.842 57.6973
684.409020 74.016 46.9629
689.368530 74.645 77.9153
694.363979 76.399 88.7800
699.395626 78.173 76.4470
704.463736 79.372 61.2422
709.568570 79.754 44.5613
714.710396 79.292 30.1531
719.889483 78.281 22.7842
725.106099 77.316 22.3953
730.360516 76.769 22.5386
735.653010 76.821 26.5994
740.983855 77.571 31.1843
746.353329 78.179 23.1975
751.761713 78.246 19.1287
757.209288 78.662 29.2747
762.696339 79.294 23.8381
768.223151 79.590 18.5933
773.790013 79.939 16.2268
779.397214 80.142 8.9695
785.045047 80.338 11.2759
790.733808 80.682 7.3115
796.463791 80.791 1.2139
802.235296 81.075 1.5203
808.048623 81.671 -3.4153
813.904077 82.503 -8.4888
819.801961 83.521 -16.7539
825.742584 84.112 -33.1309
831.726255 83.746 -52.3962
837.753287 82.606 -67.9485
843.823992 81.113 -83.5420
849.938689 79.266 -103.0498
856.097695 76.993 -129.5659
862.301332 74.974 164.9861
868.549922 74.522 45.1536
874.843793 74.920 10.4351
881.183272 75.194 -8.4785
887.568689 75.637 -10.4744
894.000378 76.749 0.1721
900.478673 77.883 -10.6306
907.003913 78.456 -26.5183
913.576437 78.617 -41.2817
920.196588 78.660 -59.0635
926.864712 78.302 -89.2217
933.581156 77.237 -139.0278
940.346270 76.414 124.0874
947.160407 76.876 67.7285
954.023921 78.619 49.1111
960.937172 80.904 35.7344
967.900519 82.723 16.2402
974.914325 83.710 -6.2563
981.978956 83.585 -30.6504
989.094780 82.120 -49.2622
996.262169 79.956 -48.1680
1003.481495 79.331 -31.1123
1010.753136 81.262 -15.2896
1018.077470 83.294 -27.1543
1025.454879 83.852 -51.9502
1032.885748 82.839 -72.5527
1040.370463 81.262 -70.8032
1047.909417 80.748 -64.6328
1055.503000 80.843 -75.3691
1063.151610 80.909 -86.7368
1070.855645 80.700 -104.6064
1078.615506 79.395 -120.3984
1086.431599 77.429 -101.9219
1094.304330 76.354 -100.0059
1102.234110 76.756 -85.4443
1110.221353 78.043 -73.1157
1118.266475 78.230 -98.6792
1126.369895 76.581 -120.2803
1134.532035 74.092 -126.5410
1142.753322 72.671 -116.7939
1151.034184 73.088 -96.2451
1159.375052 74.374 -93.6694
1167.776361 76.082 -102.5923
1176.238550 77.259 -141.4487
1184.762060 77.297 161.3687
1193.347334 76.204 84.6455
1201.994821 74.620 32.3081
1210.704971 73.789 9.9194
1219.478238 74.254 19.7910
1228.315080 75.336 5.1304
1237.215957 76.018 -22.9624
1246.181334 76.452 -45.9326
1255.211678 76.678 -72.1147
1264.307459 76.025 -106.4043
1273.469152 74.182 -148.9824
1282.697235 72.450 88.5107
1291.992188 73.445 34.8770
1301.354495 76.178 23.9937
1310.784647 78.366 -1.2432
1320.283132 79.436 -28.2725
1329.850448 79.647 -50.9707
1339.487093 79.528 -68.2856
1349.193569 79.719 -80.7432
1358.970381 80.289 -97.2437
1368.818041 80.554 -121.8262
1378.737061 80.499 -152.1201
1388.727958 80.302 167.8677
1398.791253 80.135 112.9102
1408.927471 79.948 45.9004
1419.137140 79.503 -13.8936
1429.420793 78.455 -61.0688
1439.778965 77.011 -102.4658
1450.212197 75.495 -147.8677
1460.721033 74.332 7.0801
1471.306019 73.625 -38.1851
1481.967709 73.148 -72.3872
1492.706658 72.929 -107.5000
1503.523426 73.564 73.3638
1514.418576 75.001 24.2754
1525.392678 77.052 11.6851
1536.446302 79.148 -11.9414
1547.580025 80.370 -40.1992
1558.794428 80.160 -67.0815
1570.090095 78.898 -81.1382
1581.467615 78.089 -81.8892
1592.927581 78.259 -88.6714
1604.470591 78.595 -97.7466
1616.097246 78.843 -109.7080
1627.808153 78.618 -124.7959
1639.603922 78.121 -137.3862
1651.485168 77.755 -150.4409
1663.452510 77.327 -166.2256
1675.506573 76.605 173.8369
1687.647984 75.079 141.4443
1699.877377 72.949 99.6353
1712.195390 72.961 9.8335
1724.602663 75.022 -45.0967
1737.099845 76.563 -83.5181
1749.687587 78.003 -107.9946
1762.366544 80.148 -137.8511
1775.137379 81.501 161.1147
1788.000756 81.262 38.7769
1800.957346 80.371 -36.0151
1814.007826 80.107 -74.9307
1827.152874 79.911 -105.4487
1840.393177 78.877 -127.2964
1853.729425 77.657 -123.2905
1867.162312 77.762 -120.3550
1880.692540 78.578 -128.5415
1894.320813 79.468 -139.3145
1908.047843 80.202 -153.2251
1921.874344 80.644 -169.3833
1935.801038 80.148 169.5640
1949.828650 78.480 160.8096
1963.957912 77.138 167.0928
1978.189561 76.502 152.2827
1992.524338 75.133 131.9395
2006.962991 73.758 129.8906
2021.506272 74.866 -133.7422
2036.154940 77.626 -131.2915
2050.909758 79.667 -143.2065
2065.771495 79.999 -173.1714
