* Measurement data measured by REW V5.31.1
* Source: Scarlett 2i4 USB, MICROPHONE, R, volume: no control
* Format: 512k Log Swept Sine, 1 sweep at -18.0 dBFS with no timing reference
* Dated: May 7, 2024 4:21:11 PM
* REW Settings:
*  C-weighting compensation: Off
*  Target level: 75.0 dB
* Note: ; 
* Measurement: front-l12-r12-p3-r
* Smoothing: 1/48 octave
* Frequency Step: 96 ppo
* Start Frequency: 10.093689 Hz
*
* Freq(Hz) SPL(dB) Phase(degrees)
10.093689 42.548 84.1972
10.166832 42.753 80.0875
10.240505 43.001 75.7253
10.314712 43.256 71.3185
10.389457 43.503 67.0338
10.464743 43.710 62.9217
10.540575 43.852 58.5880
10.616956 43.948 54.1199
10.693891 44.004 49.7168
10.771383 44.021 45.5753
10.849437 43.998 41.4659
10.928057 43.933 37.2105
11.007246 43.826 32.9878
11.087009 43.676 29.0252
11.167350 43.480 25.3649
11.248273 43.239 21.7043
11.329783 42.953 18.1496
11.411883 42.624 14.9090
11.494578 42.245 12.1845
11.577873 41.811 9.8317
11.661771 41.343 7.8728
11.746277 40.869 6.4298
11.831395 40.391 5.7421
11.917130 39.891 6.0306
12.003487 39.428 7.1673
12.090469 39.087 8.9051
12.178081 38.921 11.1867
12.266329 38.908 14.2899
12.355216 39.032 17.5148
12.444747 39.288 20.0970
12.534926 39.698 21.9271
12.625760 40.241 23.2350
12.717251 40.833 23.7914
12.809406 41.396 23.4653
12.902228 41.939 22.3569
12.995723 42.461 20.7349
13.089895 42.936 18.7873
13.184750 43.343 16.5166
13.280292 43.689 13.7979
13.376526 43.975 10.9383
13.473458 44.201 8.1993
13.571093 44.363 5.3424
13.669434 44.464 2.3886
13.768489 44.512 -0.3514
13.868261 44.508 -2.7435
13.968756 44.451 -5.0330
14.069979 44.360 -7.0463
14.171936 44.253 -8.5471
14.274632 44.121 -9.5599
14.378072 43.994 -10.1489
14.482261 43.915 -10.3262
14.587206 43.890 -9.9264
14.692910 43.926 -9.1037
14.799381 44.052 -8.2345
14.906624 44.288 -7.3474
15.014643 44.618 -6.4350
15.123446 45.012 -5.9086
15.233036 45.460 -5.8912
15.343421 45.958 -6.1977
15.454606 46.469 -6.9393
15.566596 46.970 -8.1582
15.679398 47.465 -9.7173
15.793018 47.942 -11.5281
15.907460 48.390 -13.5767
16.022732 48.813 -15.8358
16.138840 49.213 -18.1874
16.255788 49.590 -20.6084
16.373585 49.945 -23.1189
16.492234 50.285 -25.6568
16.611744 50.611 -28.2158
16.732119 50.924 -30.8158
16.853367 51.227 -33.4594
16.975494 51.519 -36.1593
17.098505 51.796 -38.9113
17.222408 52.054 -41.7372
17.347209 52.293 -44.6756
17.472914 52.501 -47.6421
17.599530 52.672 -50.6731
17.727063 52.802 -53.7970
17.855521 52.879 -56.7971
17.984909 52.900 -59.8189
18.115235 52.858 -62.7229
18.246506 52.746 -65.2567
18.378727 52.564 -67.5873
18.511907 52.319 -69.3667
18.646052 52.009 -70.4403
18.781169 51.665 -70.7736
18.917265 51.333 -70.0622
19.054347 51.032 -68.1695
19.192423 50.862 -65.3884
19.331499 50.878 -61.7063
19.471583 51.083 -57.7199
19.612682 51.495 -54.2546
19.754804 52.080 -51.3488
19.897956 52.733 -49.5688
20.042144 53.426 -48.7786
20.187378 54.102 -48.7977
20.333664 54.720 -49.5683
20.481010 55.281 -50.8216
20.629424 55.771 -52.3486
20.778913 56.194 -54.1387
20.929486 56.562 -55.9179
21.081150 56.876 -57.7439
21.233912 57.153 -59.4817
21.387782 57.399 -61.1281
21.542767 57.624 -62.6895
21.698874 57.835 -64.1546
21.856113 58.033 -65.5465
22.014492 58.221 -66.8820
22.174018 58.398 -68.1473
22.334700 58.563 -69.3258
22.496546 58.718 -70.4058
22.659566 58.868 -71.3102
22.823766 59.022 -72.0565
22.989157 59.195 -72.6033
23.155745 59.397 -72.9857
23.323542 59.646 -73.3257
23.492554 59.944 -73.6493
23.662790 60.288 -74.2124
23.834261 60.668 -74.9889
24.006973 61.058 -76.1656
24.180938 61.444 -77.6490
24.356163 61.794 -79.4090
24.532658 62.102 -81.3223
24.710431 62.355 -83.1638
24.889493 62.565 -84.8155
25.069853 62.747 -85.9845
25.251519 62.943 -86.6526
25.434502 63.198 -86.6370
25.618811 63.564 -86.2965
25.804456 64.076 -85.6820
25.991445 64.728 -85.5607
26.179790 65.501 -85.9655
26.369500 66.326 -87.4537
26.560584 67.163 -89.7942
26.753053 67.954 -93.0987
26.946917 68.674 -97.0233
27.142185 69.302 -101.5367
27.338869 69.833 -106.2610
27.536977 70.266 -111.2051
27.736522 70.614 -116.0359
27.937512 70.889 -120.7705
28.139959 71.110 -125.2598
28.343872 71.300 -129.5213
28.549264 71.473 -133.5755
28.756143 71.647 -137.5374
28.964522 71.819 -141.5112
29.174411 71.985 -145.6288
29.385821 72.124 -149.9623
29.598763 72.217 -154.5317
29.813248 72.236 -159.3166
30.029287 72.163 -164.1112
30.246891 71.985 -168.8867
30.466073 71.696 -173.2627
30.686842 71.309 -177.0755
30.909212 70.844 179.9369
31.133193 70.357 178.0322
31.358797 69.909 177.1667
31.586035 69.565 177.3206
31.814921 69.376 177.8968
32.045465 69.337 178.4849
32.277680 69.416 178.7284
32.511577 69.551 178.4575
32.747169 69.709 177.8878
32.984469 69.880 177.1701
33.223488 70.084 176.5491
33.464239 70.364 175.9747
33.706735 70.742 175.2210
33.950987 71.224 174.0268
34.197010 71.774 171.9604
34.444816 72.334 168.9424
34.694417 72.855 165.0559
34.945827 73.291 160.4277
35.199059 73.619 155.4298
35.454126 73.838 150.3736
35.711041 73.964 145.4858
35.969818 74.025 141.0156
36.230470 74.070 137.1063
36.493011 74.141 133.6610
36.757455 74.266 130.5197
37.023814 74.455 127.4711
37.292104 74.695 124.2928
37.562338 74.960 120.9344
37.834530 75.236 117.4941
38.108695 75.529 114.0885
38.384846 75.858 110.8111
38.662999 76.258 107.6528
38.943167 76.754 104.3821
39.225365 77.338 100.6977
39.509608 77.980 96.4101
39.795911 78.638 91.4987
40.084289 79.276 86.1035
40.374756 79.887 80.4947
40.667328 80.495 74.9905
40.962020 81.157 69.7490
41.258848 81.934 64.6241
41.557827 82.857 59.1977
41.858972 83.907 52.9565
42.162299 85.023 45.5152
42.467824 86.124 36.7377
42.775564 87.138 26.7198
43.085533 88.013 15.7072
43.397749 88.719 4.0175
43.712227 89.242 -8.0013
44.028983 89.580 -20.0162
44.348036 89.741 -31.7260
44.669400 89.744 -42.8602
44.993093 89.618 -53.1886
45.319131 89.401 -62.5433
45.647532 89.136 -70.8437
45.978313 88.867 -78.1130
46.311491 88.627 -84.4646
46.647083 88.439 -90.0579
46.985107 88.314 -95.0475
47.325581 88.257 -99.5596
47.668521 88.271 -103.7010
48.013947 88.359 -107.5721
48.361876 88.518 -111.2602
48.712326 88.746 -114.8239
49.065315 89.044 -118.3027
49.420863 89.421 -121.7605
49.778987 89.880 -125.3240
50.139706 90.417 -129.1615
50.503039 91.018 -133.4065
50.869005 91.665 -138.1029
51.237623 92.353 -143.2377
51.608912 93.091 -148.8524
51.982891 93.884 -155.1462
52.359580 94.717 -162.4548
52.739000 95.536 -171.0928
53.121168 96.269 178.8154
53.506106 96.840 167.3933
53.893833 97.187 154.9306
54.284370 97.268 141.8357
54.677737 97.059 128.6150
55.073955 96.558 115.8329
55.473043 95.785 104.0787
55.875024 94.799 93.8834
56.279917 93.687 85.5851
56.687745 92.565 79.1379
57.098527 91.521 73.9972
57.512287 90.578 69.4693
57.929045 89.697 65.2270
58.348822 88.838 61.3979
58.771642 88.006 58.2284
59.197525 87.240 55.6795
59.626495 86.570 53.3613
60.058573 85.976 50.8711
60.493782 85.407 48.1014
60.932145 84.826 45.2528
61.373685 84.226 42.5588
61.818424 83.620 40.1324
62.266386 83.022 37.9772
62.717593 82.446 36.0857
63.172071 81.906 34.4174
63.629842 81.417 32.8214
64.090930 80.976 31.1004
64.555359 80.562 29.1512
65.023154 80.157 27.0471
65.494339 79.763 24.8870
65.968938 79.395 22.5947
66.446976 79.055 19.9014
66.928478 78.716 16.5082
67.413469 78.324 12.2787
67.901975 77.826 7.2725
68.394021 77.173 1.6943
68.889632 76.329 -4.2674
69.388835 75.266 -10.4771
69.891655 73.945 -17.0465
70.398118 72.286 -24.2958
70.908252 70.165 -32.6156
71.422083 67.599 -41.5583
71.939636 65.842 -35.8484
72.460941 67.178 104.1900
72.986023 69.864 92.2795
73.514909 71.997 78.0921
74.047629 73.383 63.7145
74.584208 74.171 49.7709
75.124676 74.537 36.5131
75.669061 74.627 23.5710
76.217390 74.526 10.3212
76.769692 74.258 -3.8433
77.325997 73.827 -19.2144
77.886333 73.283 -35.6974
78.450730 72.750 -53.1938
79.019216 72.408 -71.5630
79.591822 72.391 -90.5375
80.168577 72.684 -109.4941
80.749512 73.149 -127.5984
81.334656 73.632 -144.0538
81.924040 74.049 -158.2546
82.517696 74.401 -169.9086
83.115653 74.744 -179.0625
83.717943 75.141 173.8296
84.324598 75.628 168.1060
84.935649 76.211 163.2307
85.551128 76.891 158.7698
86.171066 77.647 154.2412
86.795497 78.433 149.2415
87.424453 79.194 143.7056
88.057967 79.905 137.7845
88.696071 80.557 131.4673
89.338800 81.121 124.5776
89.986185 81.552 117.1245
90.638262 81.825 109.3627
91.295065 81.932 101.3879
91.956626 81.836 92.9550
92.622982 81.430 84.1295
93.294166 80.604 76.2512
93.970214 79.404 72.3534
94.651161 78.256 75.8352
95.337042 77.875 84.4705
96.027894 78.408 90.0607
96.723752 79.325 90.3671
97.424652 80.245 87.4824
98.130631 81.063 82.8247
98.841726 81.771 76.8680
99.557974 82.360 69.6180
100.279412 82.786 60.9507
101.006078 82.988 50.9934
101.738010 82.920 40.1823
102.475245 82.565 28.9664
103.217823 81.917 17.6284
103.965782 80.963 6.4495
104.719161 79.690 -4.0978
105.477999 78.113 -13.4547
106.242336 76.276 -21.2782
107.012212 74.242 -27.5367
107.787666 72.093 -32.4307
108.568740 69.958 -36.9120
109.355474 68.029 -43.5345
110.147909 66.544 -55.9624
110.946086 65.849 -76.8114
111.750047 66.334 -103.7485
112.559834 67.898 -128.9475
113.375489 69.905 -148.7336
114.197055 71.829 -164.5681
115.024574 73.465 -177.7349
115.858089 74.811 171.3727
116.697645 75.915 162.3099
117.543284 76.807 154.6306
118.395051 77.522 148.3223
119.252990 78.130 143.5535
120.117147 78.726 140.2712
120.987565 79.406 138.2202
121.864291 80.222 136.4249
122.747370 81.104 133.5652
123.636848 81.942 129.4755
124.532771 82.686 124.8171
125.435187 83.346 119.9720
126.344142 83.940 115.1191
127.259684 84.490 110.2441
128.181860 84.990 105.0671
129.110718 85.422 99.6819
130.046308 85.800 94.3727
130.988677 86.132 88.7393
131.937875 86.358 82.3451
132.893951 86.412 75.6040
133.856956 86.280 69.2466
134.826938 85.998 63.8717
135.803950 85.645 60.0122
136.788041 85.337 57.6930
137.779264 85.172 56.3221
138.777669 85.196 55.1661
139.783309 85.380 53.1941
140.796237 85.601 49.5181
141.816504 85.702 44.1692
142.844165 85.569 37.9844
143.879273 85.163 32.1646
144.921881 84.523 27.7107
145.972045 83.738 25.4316
147.029819 82.961 25.9099
148.095257 82.365 28.4213
149.168417 82.067 32.0059
150.249353 82.199 37.1896
151.338121 82.869 42.2354
152.434780 83.870 43.2504
153.539385 84.849 39.8296
154.651995 85.593 33.5355
155.772667 86.014 25.5420
156.901460 86.083 16.8475
158.038432 85.818 8.5481
159.183644 85.295 1.4022
160.337154 84.592 -4.8047
161.499023 83.694 -10.7823
162.669312 82.508 -15.8676
163.848081 81.026 -17.4695
165.035392 79.515 -12.2322
166.231306 78.555 -1.0126
167.435887 78.441 8.2968
168.649196 78.768 12.2347
169.871298 79.109 13.5447
171.102255 79.433 15.3401
172.342133 80.006 19.4171
173.590995 81.050 23.7460
174.848907 82.349 23.3323
176.115934 83.456 16.9474
177.392143 84.087 7.0140
178.677599 84.189 -3.5977
179.972371 83.833 -13.4473
181.276525 83.069 -22.3027
182.590129 81.897 -29.4631
183.913252 80.369 -32.7129
185.245964 78.812 -28.4631
186.588332 77.983 -16.2043
187.940428 78.288 -6.9578
189.302322 79.018 -7.5630
190.674085 79.456 -13.4060
192.055788 79.450 -19.7561
193.447503 79.134 -25.0009
194.849303 78.590 -30.7655
196.261262 77.689 -37.8978
197.683452 76.293 -43.2114
199.115948 74.659 -40.9307
200.558824 73.673 -31.1713
202.012156 73.881 -31.3691
203.476019 74.574 -51.4653
204.950490 75.412 -96.8702
206.435646 76.865 -171.6462
207.931564 78.921 139.2788
209.438322 81.017 111.9945
210.955998 82.846 93.0483
212.484672 84.321 77.4648
214.024424 85.386 63.0448
215.575333 86.012 49.6462
217.137481 86.281 38.4468
218.710948 86.416 30.4866
220.295818 86.698 25.1674
221.892172 87.253 20.0074
223.500094 87.950 12.6715
225.119668 88.531 2.2191
226.750978 88.754 -11.0012
228.394109 88.450 -25.7546
230.049147 87.520 -40.4513
231.716178 85.912 -53.4296
233.395289 83.609 -62.4709
235.086567 80.834 -61.3145
236.790102 79.059 -19.7802
238.505980 80.279 22.1581
240.234293 82.692 23.4033
241.975130 84.714 15.8800
243.728581 86.183 6.6367
245.494739 87.233 -2.6575
247.273695 87.991 -11.7074
249.065542 88.530 -20.7136
250.870374 88.885 -29.7825
252.688284 89.069 -38.9788
254.519367 89.069 -48.3464
256.363720 88.875 -57.4851
258.221437 88.542 -65.4238
260.092616 88.215 -71.8511
261.977354 87.955 -78.9224
263.875750 87.576 -88.4370
265.787903 86.862 -98.2402
267.713911 85.854 -105.3691
269.653877 84.753 -110.4951
271.607900 83.614 -115.9082
273.576083 82.311 -121.0991
275.558528 80.819 -122.9399
277.555338 79.538 -117.0386
279.566619 79.178 -107.9263
281.592474 79.600 -107.9351
283.633009 79.901 -117.4307
285.688331 79.453 -131.9856
287.758546 77.991 -146.9392
289.843763 75.530 -156.1392
291.944090 72.827 -134.1719
294.059638 72.221 -67.3964
296.190515 73.879 -61.9247
298.336833 75.780 -66.1205
300.498705 77.480 -70.4731
302.676243 79.069 -75.2998
304.869559 80.481 -83.0317
307.078770 81.566 -93.7751
309.303989 82.259 -106.1472
311.545334 82.594 -118.6733
313.802919 82.687 -130.1692
316.076865 82.703 -140.3418
318.367288 82.806 -149.6509
320.674309 83.068 -159.5952
322.998047 83.376 -171.9399
325.338624 83.520 173.1406
327.696162 83.368 157.0105
330.070783 82.901 140.6521
332.462612 82.128 124.4473
334.871773 81.063 108.9153
337.298392 79.696 93.7876
339.742595 77.898 79.6094
342.204510 75.587 72.6270
344.684265 73.280 80.8442
347.181989 72.104 92.5330
349.697813 72.258 96.2683
352.231868 73.115 98.3130
354.784285 74.233 97.0801
357.355198 75.116 89.4871
359.944741 75.583 81.2517
362.553049 75.930 76.5789
365.180258 76.586 74.6345
367.826505 77.784 73.5657
370.491927 79.351 69.6907
373.176665 80.755 58.8730
375.880856 81.530 42.6414
378.604644 81.511 25.6521
381.348169 80.823 12.2500
384.111575 79.795 4.1062
386.895006 78.792 -0.0552
389.698607 78.330 1.9856
392.522524 79.110 10.3499
395.366904 80.778 10.2773
398.231895 82.278 -1.3213
401.117648 83.135 -18.0276
404.024312 83.327 -35.6067
406.952038 83.036 -51.2168
409.900981 82.577 -64.4910
412.871292 82.069 -78.9634
415.863128 81.262 -95.8848
418.876643 79.928 -111.6392
421.911996 78.292 -120.5947
424.969344 77.237 -122.1003
428.048847 77.290 -129.3301
431.150666 77.634 -147.1326
434.274961 77.564 -169.2129
437.421897 77.078 169.1582
440.591636 76.476 149.0344
443.784345 75.879 128.2900
447.000189 75.014 106.7520
450.239337 73.878 93.1409
453.501956 73.635 95.8860
456.788219 74.738 90.9863
460.098294 75.660 70.6165
463.432356 75.467 45.3552
466.790578 74.074 21.8252
470.173135 72.118 6.7029
473.580203 71.974 99.8596
477.011961 74.459 109.9895
480.468586 77.056 91.7761
483.950259 78.654 68.8740
487.457163 79.068 45.2058
490.989478 78.430 25.1919
494.547390 76.989 12.2634
498.131084 75.227 9.8572
501.740748 74.035 15.6797
505.376568 74.308 27.0244
509.038735 75.733 32.0867
512.727439 77.052 23.0767
516.442874 77.623 8.2886
520.185232 77.361 -7.8628
523.954708 76.353 -23.9580
527.751500 75.322 -30.3127
531.575805 76.260 38.3206
535.427822 78.741 40.4407
539.307753 80.555 17.0122
543.215800 80.953 -10.4175
547.152165 79.952 -34.2039
551.117055 77.893 -46.8508
555.110677 75.586 -42.4573
559.133237 73.963 -40.4048
563.184947 73.318 -31.9316
567.266018 74.062 -18.9055
571.376661 75.342 -25.3499
575.517092 76.238 -39.4312
579.687526 76.345 -59.8655
583.888181 75.319 -83.2551
588.119275 73.633 -89.3689
592.381030 73.417 -31.0398
596.673667 74.948 -41.8198
600.997410 75.965 -72.8350
605.352485 75.589 -109.2249
609.739119 73.836 -146.9575
614.157540 70.992 177.3271
618.607979 68.432 -162.8596
623.090667 69.620 -121.3237
627.605839 72.866 -157.4668
632.153730 75.344 157.2344
636.734576 76.533 112.9270
641.348617 76.286 72.8557
645.996094 74.661 41.8474
650.677248 72.615 26.4844
655.392323 72.192 91.5166
660.141566 73.193 93.2512
664.925224 73.666 71.1370
669.743546 73.731 63.5659
674.596784 75.242 84.6096
679.485191 78.124 88.4504
684.409020 80.785 76.3088
689.368530 82.493 55.6526
694.363979 83.048 32.2327
699.395626 82.720 12.8159
704.463736 82.013 -2.4170
709.568570 81.056 -17.5664
714.710396 79.769 -30.5737
719.889483 78.180 -44.2251
725.106099 76.321 -51.1682
730.360516 75.742 -35.3242
735.653010 77.285 -48.8164
740.983855 79.243 -122.9727
746.353329 81.168 109.6357
751.761713 82.572 56.8684
757.209288 82.723 15.9092
762.696339 81.351 -13.3005
768.223151 79.043 -22.1331
773.790013 76.953 -29.5444
779.397214 75.961 -9.1519
785.045047 76.854 30.2854
790.733808 78.329 16.3101
796.463791 79.670 7.0073
802.235296 81.304 7.0881
808.048623 82.433 -11.2058
813.904077 82.421 -34.3018
819.801961 81.695 -51.6985
825.742584 80.914 -67.4268
831.726255 80.105 -87.5210
837.753287 78.661 -113.9177
843.823992 76.104 -135.4080
849.938689 73.680 -106.5608
856.097695 74.470 -102.2588
862.301332 77.096 -143.1255
868.549922 79.053 161.8003
874.843793 80.014 111.7332
881.183272 80.323 72.5718
887.568689 80.256 46.6965
894.000378 80.549 33.9919
900.478673 80.838 11.9753
907.003913 80.042 -14.3965
913.576437 78.016 -35.2522
920.196588 75.207 -39.1565
926.864712 73.173 8.2429
933.581156 73.720 28.8081
940.346270 75.133 21.7693
947.160407 77.060 28.1211
954.023921 79.877 42.8784
960.937172 82.125 27.7317
967.900519 83.024 4.0940
974.914325 82.939 -13.8320
981.978956 82.745 -26.8721
989.094780 82.315 -45.4507
996.262169 81.000 -65.3464
1003.481495 79.139 -81.6174
1010.753136 78.262 -25.2717
1018.077470 79.707 13.2314
1025.454879 81.791 -6.6069
1032.885748 83.140 -30.3340
1040.370463 83.199 -56.6790
1047.909417 81.828 -76.8401
1055.503000 79.801 -79.0557
1063.151610 78.468 -81.2441
1070.855645 77.651 -95.2698
1078.615506 76.387 -112.4236
1086.431599 75.775 -88.9944
1094.304330 77.769 -37.3406
1102.234110 80.552 -58.5117
1110.221353 82.503 -92.9480
1118.266475 83.294 -135.9963
1126.369895 83.112 174.4072
1134.532035 82.056 121.5105
1142.753322 80.328 74.5134
1151.034184 78.352 40.8979
1159.375052 76.731 21.8604
1167.776361 76.254 14.2188
1176.238550 77.594 17.7021
1184.762060 80.152 20.5327
1193.347334 82.313 4.1567
1201.994821 83.234 -21.7090
1210.704971 82.880 -47.3022
1219.478238 81.457 -66.9648
1228.315080 79.632 -77.5283
1237.215957 78.154 -87.9600
1246.181334 76.949 -80.1714
1255.211678 76.563 -32.7998
1264.307459 76.877 -44.9150
1273.469152 76.914 -59.8096
1282.697235 76.859 -64.6025
1291.992188 77.355 -64.3477
1301.354495 77.740 -76.4619
1310.784647 77.669 -87.7998
1320.283132 77.546 -101.8887
1329.850448 76.800 -124.8657
1339.487093 75.149 -152.3794
1349.193569 73.223 164.5312
1358.970381 72.230 24.4536
1368.818041 72.375 -29.9766
1378.737061 73.328 -27.1260
1388.727958 74.572 -16.9497
1398.791253 75.342 -27.4463
1408.927471 76.310 -33.4326
1419.137140 77.011 -55.0527
1429.420793 76.635 -81.2065
1439.778965 75.433 -107.7124
1450.212197 74.730 -87.0215
1460.721033 76.883 12.8804
1471.306019 79.817 -8.3667
1481.967709 81.277 -38.0137
1492.706658 81.000 -65.9551
1503.523426 79.558 -83.9893
1514.418576 78.005 -88.8306
1525.392678 77.843 -82.0327
1536.446302 78.937 -80.5645
1547.580025 79.236 -98.6611
1558.794428 78.155 -112.6230
1570.090095 76.946 -116.2773
1581.467615 77.061 -111.8809
1592.927581 78.432 -95.5493
1604.470591 79.427 -111.8672
1616.097246 79.022 -139.9385
1627.808153 77.315 -161.0151
1639.603922 74.873 -168.2158
1651.485168 72.546 -103.3594
1663.452510 72.200 -79.5703
1675.506573 73.339 -89.5737
1687.647984 74.684 -92.7231
1699.877377 76.064 -100.2197
1712.195390 76.267 -117.2036
1724.602663 75.431 -123.2319
1737.099845 74.635 -132.0718
1749.687587 74.672 -135.8394
1762.366544 76.106 -69.5811
1775.137379 77.897 -75.9531
1788.000756 79.405 -94.5718
1800.957346 80.309 -114.4312
1814.007826 80.797 -125.4795
1827.152874 81.308 -133.5903
1840.393177 81.088 -151.7676
1853.729425 79.995 -168.6445
1867.162312 78.195 -176.2744
1880.692540 76.767 -164.8623
1894.320813 76.899 -151.9429
1908.047843 77.661 -155.6387
1921.874344 78.421 -161.0776
1935.801038 78.996 -169.7441
1949.828650 78.863 -177.8848
1963.957912 78.337 173.0381
1978.189561 77.249 158.7808
1992.524338 76.208 173.6133
2006.962991 77.039 -156.3887
2021.506272 78.871 -147.9272
2036.154940 79.595 -166.7168
2050.909758 79.005 179.3433
2065.771495 78.354 178.7158
2080.740927 79.102 -151.9087
