* Measurement data measured by REW V5.31.1
* Source: Scarlett 2i4 USB, MICROPHONE, R, volume: no control
* Format: 512k Log Swept Sine, 1 sweep at -18.0 dBFS with no timing reference
* Dated: May 7, 2024 2:02:46 PM
* REW Settings:
*  C-weighting compensation: Off
*  Target level: 75.0 dB
* Note: ; 
* Measurement: front-empty-p1-c
* Smoothing: 1/48 octave
* Frequency Step: 96 ppo
* Start Frequency: 10.093689 Hz
*
* Freq(Hz) SPL(dB) Phase(degrees)
10.093689 52.399 60.0651
10.166832 52.750 56.0277
10.240505 53.173 51.7675
10.314712 53.606 47.4854
10.389457 54.032 43.2903
10.464743 54.411 39.1511
10.540575 54.716 34.7102
10.616956 54.970 30.1237
10.693891 55.176 25.6024
10.771383 55.335 21.3037
10.849437 55.445 16.9104
10.928057 55.505 12.2711
11.007246 55.514 7.6233
11.087009 55.471 3.2136
11.167350 55.374 -0.9998
11.248273 55.223 -5.4238
11.329783 55.014 -9.8783
11.411883 54.742 -14.0811
11.494578 54.404 -17.8554
11.577873 53.999 -21.5867
11.661771 53.527 -25.1928
11.746277 52.986 -28.4003
11.831395 52.361 -30.8609
11.917130 51.636 -32.6284
12.003487 50.874 -33.6456
12.090469 50.153 -33.7286
12.178081 49.493 -32.4226
12.266329 48.870 -29.1898
12.355216 48.398 -24.5053
12.444747 48.242 -19.4496
12.534926 48.506 -14.4458
12.625760 49.108 -9.7041
12.717251 49.877 -6.3697
12.809406 50.680 -4.9961
12.902228 51.542 -5.0360
12.995723 52.441 -6.0420
13.089895 53.297 -7.8457
13.184750 54.056 -10.4150
13.280292 54.740 -13.6224
13.376526 55.361 -17.0877
13.473458 55.922 -20.5871
13.571093 56.419 -24.3529
13.669434 56.856 -28.2778
13.768489 57.247 -32.0543
13.868261 57.596 -35.6208
13.968756 57.900 -39.2218
14.069979 58.174 -42.6663
14.171936 58.430 -45.7647
14.274632 58.663 -48.6501
14.378072 58.887 -51.3596
14.482261 59.117 -53.8385
14.587206 59.357 -56.0263
14.692910 59.609 -58.0325
14.799381 59.880 -59.9958
14.906624 60.178 -61.8850
15.014643 60.497 -63.6910
15.123446 60.826 -65.6041
15.233036 61.163 -67.6993
15.343421 61.504 -69.8803
15.454606 61.828 -72.1969
15.566596 62.125 -74.7472
15.679398 62.393 -77.4921
15.793018 62.614 -80.2753
15.907460 62.776 -83.1582
16.022732 62.879 -86.2152
16.138840 62.910 -89.1218
16.255788 62.859 -91.8988
16.373585 62.726 -94.6619
16.492234 62.504 -96.9705
16.611744 62.183 -98.7988
16.732119 61.776 -100.1459
16.853367 61.305 -100.5394
16.975494 60.755 -99.7414
17.098505 60.217 -97.6545
17.222408 59.808 -94.1074
17.347209 59.543 -88.8347
17.472914 59.521 -82.7923
17.599530 59.839 -76.9088
17.727063 60.432 -71.5745
17.855521 61.144 -67.8548
17.984909 61.937 -65.6582
18.115235 62.738 -64.6648
18.246506 63.449 -64.7498
18.378727 64.072 -65.7031
18.511907 64.591 -67.0122
18.646052 64.995 -68.7073
18.781169 65.290 -70.5751
18.917265 65.482 -72.1915
19.054347 65.573 -73.7699
19.192423 65.584 -74.8605
19.331499 65.521 -75.3768
19.471583 65.420 -75.2730
19.612682 65.326 -74.2537
19.754804 65.262 -72.3583
19.897956 65.311 -69.7966
20.042144 65.500 -66.5511
20.187378 65.844 -63.3141
20.333664 66.359 -60.4083
20.481010 66.996 -58.1144
20.629424 67.693 -56.8647
20.778913 68.426 -56.4175
20.929486 69.131 -56.8703
21.081150 69.792 -58.0464
21.233912 70.387 -59.6963
21.387782 70.903 -61.8314
21.542767 71.339 -64.1130
21.698874 71.691 -66.5248
21.856113 71.969 -68.8804
22.014492 72.181 -70.9887
22.174018 72.342 -72.8645
22.334700 72.478 -74.2555
22.496546 72.609 -75.2626
22.659566 72.774 -75.8371
22.823766 72.989 -76.0727
22.989157 73.280 -76.2703
23.155745 73.643 -76.4606
23.323542 74.060 -77.0672
23.492554 74.513 -78.0097
23.662790 74.958 -79.4685
23.834261 75.375 -81.3132
24.006973 75.733 -83.3771
24.180938 76.026 -85.5732
24.356163 76.250 -87.4991
24.532658 76.425 -89.1283
24.710431 76.587 -90.0319
24.889493 76.787 -90.3336
25.069853 77.093 -89.8962
25.251519 77.547 -89.2841
25.434502 78.182 -88.7301
25.618811 78.950 -89.0536
25.804456 79.814 -90.3037
25.991445 80.684 -92.8474
26.179790 81.514 -96.4258
26.369500 82.247 -100.9483
26.560584 82.862 -106.1323
26.753053 83.335 -111.7729
26.946917 83.660 -117.5180
27.142185 83.834 -123.3216
27.338869 83.864 -128.6165
27.536977 83.764 -133.4471
27.736522 83.574 -137.1974
27.937512 83.349 -139.9144
28.139959 83.168 -141.2308
28.343872 83.132 -141.6640
28.549264 83.297 -141.4057
28.756143 83.675 -141.6184
28.964522 84.199 -142.6561
29.174411 84.784 -144.9630
29.385821 85.329 -148.4427
29.598763 85.783 -152.8755
29.813248 86.100 -157.9879
30.029287 86.265 -163.3069
30.246891 86.273 -168.7561
30.466073 86.135 -173.7810
30.686842 85.871 -178.2444
30.909212 85.510 178.1105
31.133193 85.106 175.5306
31.358797 84.715 173.9639
31.586035 84.389 173.4300
31.814921 84.176 173.5082
32.045465 84.086 173.9156
32.277680 84.113 174.3687
32.511577 84.231 174.6288
32.747169 84.423 174.6461
32.984469 84.678 174.3667
33.223488 84.989 173.7357
33.464239 85.340 172.6176
33.706735 85.711 170.9695
33.950987 86.072 168.7570
34.197010 86.392 166.0522
34.444816 86.650 163.0645
34.694417 86.843 159.9659
34.945827 86.978 156.9758
35.199059 87.087 154.2883
35.454126 87.206 151.8672
35.711041 87.367 149.5925
35.969818 87.585 147.2320
36.230470 87.845 144.4283
36.493011 88.105 141.0259
36.757455 88.322 137.0246
37.023814 88.454 132.5094
37.292104 88.471 127.7139
37.562338 88.360 122.9985
37.834530 88.134 118.6416
38.108695 87.817 114.8824
38.384846 87.452 111.9116
38.662999 87.092 109.7737
38.943167 86.783 108.2599
39.225365 86.547 107.0541
39.509608 86.377 105.8625
39.795911 86.247 104.4904
40.084289 86.122 102.8899
40.374756 85.976 101.1512
40.667328 85.795 99.4464
40.962020 85.582 97.9522
41.258848 85.348 96.8134
41.557827 85.116 96.1399
41.858972 84.916 95.9855
42.162299 84.783 96.3097
42.467824 84.753 96.9363
42.775564 84.845 97.5501
43.085533 85.053 97.7723
43.397749 85.342 97.2934
43.712227 85.661 95.9762
44.028983 85.962 93.8663
44.348036 86.210 91.1220
44.669400 86.388 87.9387
44.993093 86.486 84.4995
45.319131 86.505 80.9559
45.647532 86.448 77.4315
45.978313 86.319 74.0364
46.311491 86.127 70.8789
46.647083 85.883 68.0620
46.985107 85.608 65.6601
47.325581 85.323 63.6844
47.668521 85.052 62.0587
48.013947 84.806 60.6361
48.361876 84.583 59.2621
48.712326 84.369 57.8497
49.065315 84.147 56.4178
49.420863 83.910 55.0662
49.778987 83.664 53.9022
50.139706 83.423 52.9609
50.503039 83.204 52.1715
50.869005 83.007 51.3990
51.237623 82.821 50.5407
51.608912 82.629 49.6079
51.982891 82.418 48.7197
52.359580 82.194 48.0139
52.739000 81.973 47.5378
53.121168 81.767 47.2111
53.506106 81.573 46.9079
53.893833 81.377 46.5917
54.284370 81.163 46.3768
54.677737 80.935 46.4620
55.073955 80.719 46.9644
55.473043 80.543 47.7924
55.875024 80.416 48.6967
56.279917 80.317 49.4778
56.687745 80.215 50.1531
57.098527 80.089 50.9930
57.512287 79.952 52.4050
57.929045 79.863 54.7379
58.348822 79.909 58.0561
58.771642 80.179 61.9417
59.197525 80.705 65.5649
59.626495 81.449 68.1443
60.058573 82.334 69.2886
60.493782 83.291 68.8828
60.932145 84.257 66.8727
61.373685 85.174 63.2341
61.818424 85.971 58.0405
62.266386 86.583 51.6163
62.717593 86.970 44.4712
63.172071 87.132 37.2528
63.629842 87.109 30.5889
64.090930 86.981 24.8085
64.555359 86.835 19.8508
65.023154 86.731 15.2622
65.494339 86.671 10.5593
65.968938 86.625 5.5073
66.446976 86.571 0.1541
66.928478 86.516 -5.4347
67.413469 86.478 -11.4021
67.901975 86.458 -18.0739
68.394021 86.424 -25.7628
68.889632 86.332 -34.5853
69.388835 86.148 -44.4512
69.891655 85.869 -55.2855
70.398118 85.526 -67.0780
70.908252 85.174 -80.0784
71.422083 84.882 -94.6894
71.939636 84.714 -111.3521
72.460941 84.711 -130.1991
72.986023 84.875 -150.8450
73.514909 85.161 -172.2701
74.047629 85.495 166.7807
74.584208 85.814 147.3763
75.124676 86.092 130.3125
75.669061 86.364 115.8555
76.217390 86.706 103.8926
76.769692 87.183 93.7159
77.325997 87.800 84.3495
77.886333 88.495 74.8704
78.450730 89.171 64.8248
79.019216 89.739 54.1703
79.591822 90.138 43.2433
80.168577 90.352 32.5641
80.749512 90.412 22.6690
81.334656 90.399 13.9268
81.924040 90.408 6.2061
82.517696 90.497 -1.1061
83.115653 90.648 -8.7296
83.717943 90.789 -16.9891
84.324598 90.855 -25.6207
84.935649 90.839 -34.0993
85.551128 90.792 -42.0818
86.171066 90.778 -49.6816
86.795497 90.821 -57.3163
87.424453 90.905 -65.2335
88.057967 91.015 -73.3903
88.696071 91.159 -81.8802
89.338800 91.320 -91.1737
89.986185 91.410 -101.6812
90.638262 91.314 -113.1848
91.295065 90.964 -124.8792
91.956626 90.363 -135.9258
92.622982 89.551 -145.8955
93.294166 88.545 -154.4060
93.970214 87.393 -160.0687
94.651161 86.386 -160.7061
95.337042 86.064 -157.5869
96.027894 86.526 -157.1917
96.723752 87.222 -162.2856
97.424652 87.699 -170.7344
98.130631 87.826 179.9065
98.841726 87.640 171.2162
99.557974 87.249 164.1031
100.279412 86.790 158.8246
101.006078 86.381 155.0674
101.738010 86.097 152.3276
102.475245 85.968 149.9893
103.217823 85.957 147.2786
103.965782 85.967 143.9440
104.719161 85.941 140.7423
105.477999 85.950 138.7498
106.242336 86.158 138.0336
107.012212 86.653 137.0886
107.787666 87.328 134.2061
108.568740 87.980 128.8865
109.355474 88.442 121.8394
110.147909 88.661 114.3645
110.946086 88.700 107.5588
111.750047 88.662 101.3845
112.559834 88.568 94.8734
113.375489 88.331 87.6182
114.197055 87.869 80.2656
115.024574 87.178 73.6812
115.858089 86.304 68.2382
116.697645 85.278 63.8395
117.543284 84.091 60.8376
118.395051 82.774 60.5670
119.252990 81.505 64.5125
120.117147 80.621 72.7996
120.987565 80.361 81.6489
121.864291 80.534 87.4355
122.747370 80.900 92.3582
123.636848 81.528 98.2163
124.532771 82.486 103.1562
125.435187 83.672 105.5405
126.344142 84.904 104.5771
127.259684 85.994 100.2122
128.181860 86.812 93.2429
129.110718 87.303 84.7283
130.046308 87.457 75.3071
130.988677 87.226 64.8553
131.937875 86.473 53.5100
132.893951 85.046 42.8009
133.856956 83.025 35.4534
134.826938 81.643 42.6165
135.803950 83.327 138.8722
136.788041 86.479 142.4648
137.779264 88.950 126.4690
138.777669 90.406 108.0542
139.783309 91.020 91.0472
140.796237 91.036 76.7059
141.816504 90.638 64.8992
142.844165 89.924 55.5638
143.879273 88.990 49.2795
144.921881 87.978 46.1102
145.972045 87.034 45.8516
147.029819 86.371 48.9473
148.095257 86.276 54.4020
149.168417 86.848 58.9675
150.249353 87.837 59.5378
151.338121 88.875 55.5173
152.434780 89.722 47.9148
153.539385 90.268 37.8807
154.651995 90.480 26.1986
155.772667 90.328 12.9956
156.901460 89.754 -1.2909
158.038432 88.758 -15.6486
159.183644 87.462 -29.6497
160.337154 86.133 -44.4087
161.499023 85.182 -63.3922
162.669312 84.967 -90.5472
163.848081 85.473 -124.9343
165.035392 86.322 -158.9475
166.231306 87.158 173.4001
167.435887 87.860 152.9886
168.649196 88.470 138.4270
169.871298 89.024 127.6309
171.102255 89.545 119.5216
172.342133 90.091 113.5808
173.590995 90.695 108.7429
174.848907 91.319 104.0575
176.115934 91.949 99.8064
177.392143 92.673 96.6437
178.677599 93.570 93.6512
179.972371 94.564 88.9181
181.276525 95.493 81.9716
182.590129 96.245 73.4226
183.913252 96.771 63.8712
185.245964 97.031 53.4686
186.588332 96.937 42.1068
187.940428 96.364 30.6479
189.302322 95.259 21.6666
190.674085 93.799 18.9208
192.055788 92.521 24.4785
193.447503 92.045 33.1119
194.849303 92.383 38.4298
196.261262 93.165 40.9231
197.683452 94.183 41.6898
199.115948 95.301 39.7491
200.558824 96.355 34.7117
202.012156 97.232 27.3861
203.476019 97.859 18.1625
204.950490 98.123 7.0143
206.435646 97.890 -5.1902
207.931564 97.103 -16.0410
209.438322 95.900 -22.4092
210.955998 94.670 -22.7085
212.484672 93.828 -20.7314
214.024424 93.320 -21.5446
215.575333 92.799 -23.6564
217.137481 92.288 -21.8969
218.710948 92.349 -13.7028
220.295818 93.284 -6.8339
221.892172 94.514 -8.7579
223.500094 95.410 -17.1133
225.119668 95.785 -27.2175
226.750978 95.736 -36.3848
228.394109 95.414 -44.3538
230.049147 94.899 -51.4725
231.716178 94.231 -57.5126
233.395289 93.455 -62.2891
235.086567 92.602 -66.0469
236.790102 91.729 -67.8232
238.505980 91.111 -65.3429
240.234293 91.119 -61.5217
241.975130 91.593 -63.2457
243.728581 91.967 -71.3575
245.494739 91.809 -83.5795
247.273695 90.849 -96.5745
249.065542 89.111 -102.4698
250.870374 87.165 -97.9384
252.688284 85.623 -94.5903
254.519367 84.338 -94.7343
256.363720 83.017 -91.2855
258.221437 81.848 -82.9436
260.092616 81.127 -75.9274
261.977354 81.360 -64.5822
263.875750 83.340 -33.6984
265.787903 86.071 -21.3575
267.713911 88.073 -33.3596
269.653877 88.826 -52.3715
271.607900 88.348 -68.5616
273.576083 87.167 -73.7789
275.558528 86.415 -67.6898
277.555338 87.176 -57.3016
279.566619 89.130 -52.9584
281.592474 91.128 -61.5400
283.633009 92.465 -79.5601
285.688331 92.837 -102.7889
287.758546 92.120 -126.9927
289.843763 90.357 -148.5382
291.944090 87.704 -166.8250
294.059638 84.365 -179.0927
296.190515 81.163 -100.3221
298.336833 80.183 -74.2886
300.498705 81.413 -77.3589
302.676243 83.430 -76.1532
304.869559 85.467 -80.5421
307.078770 86.969 -93.6562
309.303989 87.913 -108.2035
311.545334 88.662 -120.6606
313.802919 89.387 -134.5144
316.076865 89.745 -153.9535
318.367288 89.312 -176.3536
320.674309 87.966 163.5306
322.998047 86.044 153.7559
325.338624 85.093 168.5891
327.696162 86.462 178.9327
330.070783 88.369 165.1000
332.462612 89.402 141.0895
334.871773 89.318 116.2111
337.298392 88.365 96.9669
339.742595 87.164 86.2959
342.204510 86.522 81.3839
344.684265 86.859 78.1729
347.181989 87.623 67.9012
349.697813 87.922 51.1724
352.231868 87.537 36.3601
354.784285 86.920 28.0682
357.355198 86.656 22.9946
359.944741 86.764 15.0100
362.553049 87.018 6.3770
365.180258 87.546 -0.2744
367.826505 88.157 -12.8016
370.491927 88.324 -30.5706
373.176665 88.036 -46.9868
375.880856 87.707 -61.7046
378.604644 87.564 -78.7441
381.348169 87.549 -99.1411
384.111575 87.587 -123.4624
386.895006 87.531 -151.9478
389.698607 87.288 178.1096
392.522524 87.042 150.8245
395.366904 87.057 126.3496
398.231895 87.044 101.2246
401.117648 86.525 78.1501
404.024312 85.651 63.9495
406.952038 85.160 58.4299
409.900981 85.191 49.6655
412.871292 85.103 37.5654
415.863128 84.600 27.3799
418.876643 83.866 22.7544
421.911996 83.278 20.9194
424.969344 83.131 21.7163
428.048847 83.776 29.4851
431.150666 84.815 28.8384
434.274961 85.377 19.1807
437.421897 85.464 11.9319
440.591636 85.561 9.4275
443.784345 86.164 12.1558
447.000189 87.041 7.5444
450.239337 87.635 -1.7715
453.501956 87.939 -10.2314
456.788219 88.219 -16.1003
460.098294 88.508 -24.2500
463.432356 88.444 -36.0518
466.790578 87.979 -45.2852
470.173135 87.849 -44.6487
473.580203 88.791 -42.7056
477.011961 90.202 -53.0605
480.468586 91.441 -70.2219
483.950259 92.278 -93.3154
487.457163 92.455 -122.9878
490.989478 91.750 -158.3501
494.547390 90.197 161.0415
498.131084 88.137 109.1084
501.740748 86.137 41.3550
505.376568 85.023 -18.0403
509.038735 84.818 -58.7527
512.727439 85.683 -80.9397
516.442874 87.831 -94.3530
520.185232 89.827 -122.0234
523.954708 90.824 -156.6086
527.751500 90.966 170.7131
531.575805 90.478 140.9634
535.427822 89.429 115.4275
539.307753 88.269 98.8909
543.215800 88.559 108.4053
547.152165 90.659 114.1445
551.117055 92.498 92.1353
555.110677 93.180 63.6516
559.133237 92.816 37.2969
563.184947 91.663 13.1948
567.266018 89.669 -7.9346
571.376661 87.003 -7.3323
575.517092 85.227 28.7390
579.687526 85.516 30.8069
583.888181 86.722 26.4214
588.119275 87.680 12.6619
592.381030 87.490 -9.3247
596.673667 85.874 -28.1177
600.997410 83.578 -27.5425
605.352485 83.156 37.4050
609.739119 84.874 49.4705
614.157540 86.404 36.1780
618.607979 87.530 27.7358
623.090667 88.530 19.2502
627.605839 89.668 14.3760
632.153730 91.008 7.4709
636.734576 91.859 -8.2383
641.348617 92.094 -22.0508
645.996094 92.518 -29.6602
650.677248 93.323 -42.4297
655.392323 93.782 -63.1709
660.141566 93.313 -87.1829
664.925224 91.986 -107.2004
669.743546 90.394 -123.8413
674.596784 88.978 -141.2747
679.485191 87.933 -160.6904
684.409020 87.105 173.1431
689.368530 86.067 144.1311
694.363979 85.137 120.8279
699.395626 85.448 107.4851
704.463736 86.786 89.2063
709.568570 87.470 60.3838
714.710396 86.882 35.0139
719.889483 86.009 46.7253
725.106099 86.384 61.0869
730.360516 87.292 47.8218
735.653010 88.373 40.6519
740.983855 90.072 37.4861
746.353329 91.639 23.7998
751.761713 92.296 4.2327
757.209288 92.217 -10.4963
762.696339 91.800 -25.1975
768.223151 90.875 -38.9011
773.790013 89.826 -45.9705
779.397214 89.273 -52.0977
785.045047 89.246 -62.5884
790.733808 88.876 -86.3254
796.463791 87.588 -119.9661
802.235296 86.035 -176.9412
808.048623 86.343 97.8508
813.904077 89.051 60.2793
819.801961 91.780 32.5217
825.742584 93.360 1.9548
831.726255 93.722 -27.6353
837.753287 93.164 -54.1504
843.823992 91.860 -78.1021
849.938689 90.228 -98.7402
856.097695 89.169 -127.9285
862.301332 88.941 165.8660
868.549922 89.483 71.5173
874.843793 90.472 23.8037
881.183272 91.517 -6.9961
887.568689 91.913 -35.9531
894.000378 90.975 -58.4180
900.478673 89.351 -57.0107
907.003913 88.871 -51.7627
913.576437 89.173 -64.3945
920.196588 88.947 -81.1069
926.864712 88.495 -92.0527
933.581156 88.296 -106.6309
940.346270 87.606 -133.1543
947.160407 86.070 -168.0078
954.023921 84.444 136.1479
960.937172 84.401 60.6753
967.900519 85.803 13.0239
974.914325 86.786 -23.0996
981.978956 86.472 -50.8291
989.094780 85.465 -35.5845
996.262169 85.001 -28.8989
1003.481495 84.803 -43.5215
1010.753136 84.817 -49.0356
1018.077470 86.109 -38.5112
1025.454879 88.173 -27.1304
1032.885748 89.481 -40.4312
1040.370463 90.218 -54.1006
1047.909417 91.133 -70.8120
1055.503000 91.700 -97.1089
1063.151610 91.232 -130.9487
1070.855645 89.439 -168.9761
1078.615506 86.751 131.9507
1086.431599 84.969 -12.4067
1094.304330 85.070 -43.6294
1102.234110 85.365 -67.7744
1110.221353 85.398 -82.0952
1118.266475 85.857 -83.1387
1126.369895 86.959 -86.3105
1134.532035 87.553 -103.6919
1142.753322 87.147 -118.8281
1151.034184 86.828 -133.5801
1159.375052 86.264 -164.0449
1167.776361 84.519 157.6289
1176.238550 81.924 108.3428
1184.762060 79.627 41.2622
1193.347334 78.840 -7.9019
1201.994821 78.983 -42.1636
1210.704971 79.006 -55.0142
1219.478238 80.406 1.4614
1228.315080 83.041 -2.7041
1237.215957 85.171 -24.9448
1246.181334 86.246 -50.5977
1255.211678 86.079 -75.4834
1264.307459 84.941 -94.9590
1273.469152 83.259 -101.4648
1282.697235 81.852 -100.5962
1291.992188 81.263 -100.8193
1301.354495 81.550 -105.1704
1310.784647 81.491 -121.2808
1320.283132 80.510 -128.7124
1329.850448 79.424 -124.9009
1339.487093 78.716 -108.1978
1349.193569 78.632 -76.1436
1358.970381 78.821 -85.4766
1368.818041 79.513 -93.0723
1378.737061 81.009 -111.8110
1388.727958 81.991 -152.2930
1398.791253 82.247 150.1636
1408.927471 82.276 84.2642
1419.137140 82.588 35.7925
1429.420793 82.793 -0.9028
1439.778965 82.182 -25.8203
1450.212197 81.514 -37.7856
1460.721033 81.520 -44.8701
1471.306019 82.752 -43.7896
1481.967709 84.253 -54.5234
1492.706658 84.419 -74.1089
1503.523426 83.693 -83.3994
1514.418576 83.183 -96.8877
1525.392678 82.500 -118.9678
1536.446302 81.628 -140.2788
1547.580025 81.354 -66.2729
1558.794428 82.381 -69.0938
1570.090095 83.935 -103.5576
1581.467615 85.650 -142.4902
1592.927581 87.107 167.0586
1604.470591 87.662 110.2339
1616.097246 87.471 62.6318
1627.808153 87.392 31.9805
1639.603922 88.185 9.1143
1651.485168 88.798 -18.4331
1663.452510 88.201 -45.4238
1675.506573 86.596 -60.0322
1687.647984 85.730 -56.8906
1699.877377 86.928 -56.4116
1712.195390 88.149 -76.5283
1724.602663 87.721 -107.9336
1737.099845 85.981 -137.4663
1749.687587 84.490 -174.8892
1762.366544 84.402 119.2734
1775.137379 85.254 61.6143
1788.000756 86.977 45.8745
1800.957346 88.683 22.1919
1814.007826 89.981 4.0498
1827.152874 91.510 -11.2480
1840.393177 92.237 -37.8184
1853.729425 91.670 -61.5771
1867.162312 90.518 -79.7935
1880.692540 89.204 -71.9712
1894.320813 89.143 -46.6938
1908.047843 89.884 -58.2383
1921.874344 90.000 -73.7090
1935.801038 89.930 -86.2671
1949.828650 89.346 -103.5269
1963.957912 87.997 -115.2222
1978.189561 86.576 -123.4863
1992.524338 86.594 -19.7725
2006.962991 89.233 -15.9370
2021.506272 92.138 -32.5767
2036.154940 93.828 -58.4155
2050.909758 94.108 -84.6646
2065.771495 93.165 -102.1538
