* Measurement data measured by REW V5.31.1
* Source: Scarlett 2i4 USB, MICROPHONE, R, volume: no control
* Format: 512k Log Swept Sine, 1 sweep at -18.0 dBFS with no timing reference
* Dated: May 7, 2024 3:23:29 PM
* REW Settings:
*  C-weighting compensation: Off
*  Target level: 75.0 dB
* Note: ; 
* Measurement: front-l1-r1-p1-c
* Smoothing: 1/48 octave
* Frequency Step: 96 ppo
* Start Frequency: 10.093689 Hz
*
* Freq(Hz) SPL(dB) Phase(degrees)
10.093689 43.296 -12.5527
10.166832 43.457 -14.3474
10.240505 43.652 -16.3188
10.314712 43.850 -18.2483
10.389457 44.035 -19.9372
10.464743 44.156 -21.2710
10.540575 44.169 -22.5941
10.616956 44.115 -23.7801
10.693891 44.012 -24.5628
10.771383 43.866 -24.6348
10.849437 43.647 -24.0243
10.928057 43.369 -22.7870
11.007246 43.116 -20.7180
11.087009 42.980 -17.6503
11.167350 42.998 -13.4553
11.248273 43.139 -8.2099
11.329783 43.420 -2.5487
11.411883 43.879 2.6871
11.494578 44.560 7.0400
11.577873 45.464 10.8557
11.661771 46.487 13.6045
11.746277 47.515 14.9930
11.831395 48.491 15.1268
11.917130 49.457 14.6454
12.003487 50.397 13.5572
12.090469 51.279 11.8218
12.178081 52.086 9.4531
12.266329 52.829 6.6995
12.355216 53.512 3.6935
12.444747 54.136 0.4638
12.534926 54.700 -3.1127
12.625760 55.203 -6.9716
12.717251 55.649 -10.9136
12.809406 56.040 -14.8645
12.902228 56.374 -19.1174
12.995723 56.651 -23.5514
13.089895 56.872 -27.9284
13.184750 57.037 -32.2515
13.280292 57.145 -36.8676
13.376526 57.192 -41.5237
13.473458 57.178 -45.9426
13.571093 57.102 -50.4359
13.669434 56.961 -55.0688
13.768489 56.749 -59.5176
13.868261 56.463 -63.6469
13.968756 56.101 -67.8319
14.069979 55.655 -71.8443
14.171936 55.116 -75.3061
14.274632 54.477 -78.3593
14.378072 53.747 -80.9523
14.482261 52.924 -82.7140
14.587206 51.969 -83.1680
14.692910 50.959 -82.1059
14.799381 50.063 -79.3775
14.906624 49.347 -74.3469
15.014643 48.837 -66.8223
15.123446 48.690 -58.6018
15.233036 49.051 -51.2985
15.343421 49.815 -45.3405
15.454606 50.698 -41.5541
15.566596 51.548 -39.9026
15.679398 52.397 -39.7200
15.793018 53.171 -40.4213
15.907460 53.814 -41.8433
16.022732 54.349 -43.9034
16.138840 54.790 -46.0323
16.255788 55.139 -48.1695
16.373585 55.403 -50.4372
16.492234 55.608 -52.4043
16.611744 55.757 -54.0467
16.732119 55.867 -55.4601
16.853367 55.971 -56.4572
16.975494 56.076 -56.9880
17.098505 56.201 -57.2064
17.222408 56.377 -57.2142
17.347209 56.605 -56.9323
17.472914 56.883 -56.6683
17.599530 57.214 -56.5795
17.727063 57.588 -56.5904
17.855521 57.977 -56.9196
17.984909 58.373 -57.5722
18.115235 58.760 -58.4586
18.246506 59.117 -59.5799
18.378727 59.442 -60.9343
18.511907 59.725 -62.3210
18.646052 59.961 -63.7645
18.781169 60.153 -65.1897
18.917265 60.303 -66.3980
19.054347 60.413 -67.4776
19.192423 60.495 -68.2444
19.331499 60.556 -68.6619
19.471583 60.610 -68.7252
19.612682 60.679 -68.3411
19.754804 60.772 -67.5425
19.897956 60.919 -66.4128
20.042144 61.130 -64.9348
20.187378 61.419 -63.3688
20.333664 61.797 -61.7998
20.481010 62.254 -60.4035
20.629424 62.778 -59.4461
20.778913 63.355 -58.8648
20.929486 63.952 -58.9069
21.081150 64.556 -59.4442
21.233912 65.138 -60.4937
21.387782 65.684 -62.0303
21.542767 66.180 -63.8582
21.698874 66.614 -65.9943
21.856113 66.983 -68.2308
22.014492 67.285 -70.4585
22.174018 67.525 -72.6144
22.334700 67.715 -74.4458
22.496546 67.868 -76.0103
22.659566 68.015 -77.0913
22.823766 68.175 -77.7764
22.989157 68.386 -78.1308
23.155745 68.659 -78.2236
23.323542 69.008 -78.4311
23.492554 69.421 -78.7530
23.662790 69.869 -79.5492
23.834261 70.332 -80.7134
24.006973 70.766 -82.2932
24.180938 71.159 -84.1533
24.356163 71.489 -86.0339
24.532658 71.763 -87.8435
24.710431 71.997 -89.1853
24.889493 72.227 -90.0753
25.069853 72.509 -90.2414
25.251519 72.895 -90.0505
25.434502 73.434 -89.5617
25.618811 74.122 -89.5987
25.804456 74.942 -90.2471
25.991445 75.816 -92.1511
26.179790 76.698 -95.0723
26.369500 77.516 -99.1478
26.560584 78.243 -104.0280
26.753053 78.843 -109.6299
26.946917 79.305 -115.5556
27.142185 79.619 -121.8344
27.338869 79.782 -127.8955
27.536977 79.797 -133.8719
27.736522 79.678 -139.1307
27.937512 79.452 -143.7125
28.139959 79.157 -147.1402
28.343872 78.874 -149.4548
28.549264 78.668 -150.5113
28.756143 78.634 -150.9052
28.964522 78.788 -151.1402
29.174411 79.115 -151.8725
29.385821 79.522 -153.6408
29.598763 79.941 -156.3923
29.813248 80.290 -160.1131
30.029287 80.528 -164.3269
30.246891 80.634 -168.9227
30.466073 80.607 -173.3506
30.686842 80.462 -177.4108
30.909212 80.227 179.1376
31.133193 79.952 176.5558
31.358797 79.687 174.7637
31.586035 79.478 173.7529
31.814921 79.357 173.1245
32.045465 79.322 172.6477
32.277680 79.354 172.1209
32.511577 79.425 171.4507
32.747169 79.522 170.7434
32.984469 79.646 170.0483
33.223488 79.816 169.4322
33.464239 80.051 168.7296
33.706735 80.351 167.7567
33.950987 80.702 166.3216
34.197010 81.063 164.2369
34.444816 81.393 161.5906
34.694417 81.665 158.5168
34.945827 81.860 155.2130
35.199059 81.985 151.9973
35.454126 82.067 149.0104
35.711041 82.138 146.3038
35.969818 82.232 143.8373
36.230470 82.370 141.3416
36.493011 82.540 138.5536
36.757455 82.713 135.3266
37.023814 82.850 131.5989
37.292104 82.911 127.4617
37.562338 82.870 123.1981
37.834530 82.726 119.0768
38.108695 82.492 115.3389
38.384846 82.200 112.1951
38.662999 81.893 109.7444
38.943167 81.617 107.8575
39.225365 81.395 106.2777
39.509608 81.222 104.7516
39.795911 81.077 103.1071
40.084289 80.928 101.3088
40.374756 80.751 99.4661
40.667328 80.538 97.7791
40.962020 80.299 96.4344
41.258848 80.058 95.5443
41.557827 79.842 95.1392
41.858972 79.680 95.1673
42.162299 79.596 95.5006
42.467824 79.606 95.9468
42.775564 79.715 96.2634
43.085533 79.915 96.1896
43.397749 80.175 95.5038
43.712227 80.458 94.0885
44.028983 80.720 91.9628
44.348036 80.931 89.2551
44.669400 81.069 86.1520
44.993093 81.128 82.8474
45.319131 81.109 79.5089
45.647532 81.021 76.2628
45.978313 80.874 73.1983
46.311491 80.680 70.3811
46.647083 80.449 67.8652
46.985107 80.198 65.6874
47.325581 79.943 63.8443
47.668521 79.702 62.2683
48.013947 79.482 60.8331
48.361876 79.280 59.4047
48.712326 79.079 57.9155
49.065315 78.862 56.4100
49.420863 78.622 55.0246
49.778987 78.368 53.9060
50.139706 78.124 53.1084
50.503039 77.911 52.5377
50.869005 77.736 51.9965
51.237623 77.586 51.3159
51.608912 77.434 50.4763
51.982891 77.263 49.6116
52.359580 77.075 48.8984
52.739000 76.890 48.4122
53.121168 76.723 48.0621
53.506106 76.574 47.6752
53.893833 76.421 47.1668
54.284370 76.241 46.6425
54.677737 76.028 46.3562
55.073955 75.807 46.5302
55.473043 75.617 47.1613
55.875024 75.480 47.9914
56.279917 75.385 48.7251
56.687745 75.293 49.3003
57.098527 75.176 50.0206
57.512287 75.053 51.4089
57.929045 75.001 53.8512
58.348822 75.128 57.2288
58.771642 75.508 60.7996
59.197525 76.129 63.6157
59.626495 76.922 65.0834
60.058573 77.806 65.0223
60.493782 78.714 63.3939
60.932145 79.584 60.2054
61.373685 80.355 55.5751
61.818424 80.973 49.7786
62.266386 81.405 43.2662
62.717593 81.645 36.5110
63.172071 81.719 29.9681
63.629842 81.675 23.9558
64.090930 81.568 18.5472
64.555359 81.450 13.6196
65.023154 81.353 8.9210
65.494339 81.290 4.1899
65.968938 81.260 -0.8226
66.446976 81.252 -6.3123
66.928478 81.252 -12.4468
67.413469 81.239 -19.3668
67.901975 81.194 -27.1830
68.394021 81.094 -35.9570
68.889632 80.924 -45.7159
69.388835 80.684 -56.4083
69.891655 80.399 -68.0802
70.398118 80.121 -80.9067
70.908252 79.906 -95.2979
71.422083 79.790 -111.6733
71.939636 79.769 -130.1980
72.460941 79.807 -150.3916
72.986023 79.859 -171.3134
73.514909 79.895 168.4313
74.047629 79.921 150.0549
74.584208 79.999 134.4117
75.124676 80.230 121.6035
75.669061 80.685 110.9178
76.217390 81.335 101.1536
76.769692 82.083 91.4564
77.325997 82.835 81.5038
77.886333 83.534 71.2594
78.450730 84.141 60.6959
79.019216 84.618 49.8218
79.591822 84.930 38.8812
80.168577 85.073 28.3086
80.749512 85.088 18.5656
81.334656 85.058 9.9243
81.924040 85.076 2.1857
82.517696 85.197 -5.2720
83.115653 85.399 -13.1838
83.717943 85.598 -21.9534
84.324598 85.707 -31.3773
84.935649 85.688 -40.8429
85.551128 85.571 -49.7241
86.171066 85.436 -57.7369
86.795497 85.365 -65.0621
87.424453 85.410 -72.1337
88.057967 85.585 -79.4471
88.696071 85.861 -87.6204
89.338800 86.148 -97.2314
89.986185 86.312 -108.3574
90.638262 86.238 -120.4012
91.295065 85.875 -132.3763
91.956626 85.244 -143.2928
92.622982 84.417 -152.2683
93.294166 83.541 -158.3567
93.970214 82.897 -161.0936
94.651161 82.775 -162.4772
95.337042 83.098 -166.2205
96.027894 83.478 -173.3794
96.723752 83.640 177.7053
97.424652 83.540 168.8140
98.130631 83.243 160.7561
98.841726 82.814 153.7078
99.557974 82.300 147.8400
100.279412 81.764 143.3936
101.006078 81.293 140.5027
101.738010 80.995 138.9307
102.475245 80.930 137.5544
103.217823 81.011 135.0332
103.965782 81.081 131.5024
104.719161 81.096 128.3201
105.477999 81.164 126.3196
106.242336 81.414 124.9515
107.012212 81.872 123.0284
107.787666 82.453 119.5778
108.568740 83.008 114.1628
109.355474 83.400 107.1393
110.147909 83.556 99.4351
110.946086 83.494 92.0400
111.750047 83.294 85.4209
112.559834 83.023 79.0570
113.375489 82.645 72.0430
114.197055 82.041 64.4829
115.024574 81.139 57.5867
115.858089 79.972 52.3441
116.697645 78.593 48.7745
117.543284 77.000 47.3557
118.395051 75.270 50.7788
119.252990 73.866 63.0979
120.117147 73.554 80.8059
120.987565 74.256 91.1456
121.864291 75.162 94.2190
122.747370 75.990 96.2408
123.636848 76.892 98.9058
124.532771 77.922 100.0215
125.435187 78.955 98.3976
126.344142 79.867 94.3091
127.259684 80.556 87.9678
128.181860 80.923 79.8069
129.110718 80.899 70.6504
130.046308 80.418 60.9719
130.988677 79.356 51.5626
131.937875 77.632 45.5767
132.893951 75.738 52.8663
133.856956 75.677 94.3809
134.826938 78.049 120.2582
135.803950 80.649 118.0820
136.788041 82.519 107.3152
137.779264 83.597 94.4839
138.777669 84.058 82.7285
139.783309 84.152 73.2128
140.796237 84.057 65.1245
141.816504 83.792 57.4473
142.844165 83.308 50.4023
143.879273 82.609 45.0929
144.921881 81.810 42.5792
145.972045 81.105 42.5688
147.029819 80.643 43.9512
148.095257 80.534 46.3370
149.168417 80.851 48.5789
150.249353 81.480 47.9412
151.338121 82.153 43.5383
152.434780 82.693 36.3805
153.539385 83.009 26.7295
154.651995 83.016 14.6470
155.772667 82.643 0.3826
156.901460 81.848 -15.9731
158.038432 80.660 -34.6730
159.183644 79.267 -57.2999
160.337154 78.140 -86.8785
161.499023 77.931 -123.6266
162.669312 78.689 -158.8677
163.848081 79.826 174.0161
165.035392 80.928 154.3962
166.231306 81.885 140.0775
167.435887 82.691 129.2714
168.649196 83.383 121.0244
169.871298 84.008 114.5758
171.102255 84.615 109.5144
172.342133 85.256 105.4683
173.590995 85.923 101.3776
174.848907 86.547 96.7051
176.115934 87.131 92.5460
177.392143 87.791 89.4294
178.677599 88.584 85.9886
179.972371 89.431 80.9736
181.276525 90.203 74.1028
182.590129 90.790 65.5984
183.913252 91.103 55.8612
185.245964 91.062 45.4321
186.588332 90.595 35.2150
187.940428 89.678 26.9662
189.302322 88.428 23.3708
190.674085 87.237 26.8535
192.055788 86.709 35.4137
193.447503 87.105 42.9161
194.849303 88.141 46.9366
196.261262 89.428 47.0544
197.683452 90.651 42.8713
199.115948 91.596 35.2996
200.558824 92.200 26.3519
202.012156 92.531 17.4756
203.476019 92.649 8.4709
204.950490 92.509 -1.3204
206.435646 92.003 -11.3512
207.931564 91.093 -19.5670
209.438322 89.923 -23.5490
210.955998 88.810 -23.1222
212.484672 87.997 -21.4689
214.024424 87.453 -20.2377
215.575333 87.154 -17.6180
217.137481 87.305 -12.6187
218.710948 88.021 -8.4824
220.295818 89.001 -9.5591
221.892172 89.808 -15.6705
223.500094 90.242 -23.8087
225.119668 90.334 -31.6422
226.750978 90.209 -38.5195
228.394109 89.945 -45.1365
230.049147 89.530 -51.8087
231.716178 88.939 -57.8033
233.395289 88.203 -62.3097
235.086567 87.457 -64.2087
236.790102 87.011 -62.7249
238.505980 87.138 -61.1090
240.234293 87.623 -64.7466
241.975130 87.952 -74.2622
243.728581 87.773 -87.0348
245.494739 86.937 -100.6033
247.273695 85.402 -112.2189
249.065542 83.259 -118.5682
250.870374 80.753 -119.1080
252.688284 78.116 -116.8218
254.519367 75.530 -108.0581
256.363720 73.876 -72.8383
258.221437 74.229 -44.9653
260.092616 75.618 -39.5146
261.977354 77.423 -32.5918
263.875750 79.631 -23.9907
265.787903 81.597 -27.8408
267.713911 82.708 -40.8411
269.653877 82.878 -53.8898
271.607900 82.532 -59.7772
273.576083 82.419 -58.7939
275.558528 82.917 -58.5553
277.555338 83.894 -60.4099
279.566619 85.043 -66.2734
281.592474 85.935 -78.2269
283.633009 86.238 -94.2227
285.688331 85.809 -111.4957
287.758546 84.601 -127.3689
289.843763 82.679 -138.0065
291.944090 80.377 -138.9346
294.059638 78.474 -129.7225
296.190515 77.596 -124.4888
298.336833 77.119 -128.8445
300.498705 76.330 -133.5941
302.676243 75.697 -124.5225
304.869559 76.334 -109.2122
307.078770 77.833 -109.6461
309.303989 79.316 -117.7378
311.545334 80.531 -129.4539
313.802919 81.283 -146.0402
316.076865 81.286 -166.6572
318.367288 80.357 172.7687
320.674309 78.622 158.3989
322.998047 77.127 162.8989
325.338624 77.873 -175.2172
327.696162 79.996 -179.7643
330.070783 81.584 159.2228
332.462612 82.189 134.8564
334.871773 81.949 112.6287
337.298392 81.176 95.5730
339.742595 80.406 85.4907
342.204510 80.253 79.9735
344.684265 80.708 71.7745
347.181989 81.090 57.8547
349.697813 80.945 42.9175
352.231868 80.397 32.1809
354.784285 79.863 25.3473
357.355198 79.648 19.9740
359.944741 80.017 17.0839
362.553049 81.035 13.3701
365.180258 82.075 0.7039
367.826505 82.440 -18.6279
370.491927 82.064 -36.4509
373.176665 81.535 -48.7775
375.880856 81.412 -62.3046
378.604644 81.585 -81.2808
381.348169 81.864 -104.4656
384.111575 82.157 -132.7346
386.895006 82.293 -165.3035
389.698607 82.239 161.7793
392.522524 82.208 132.1338
395.366904 82.292 104.8630
398.231895 82.123 77.9478
401.117648 81.295 53.9531
404.024312 79.817 37.8296
406.952038 78.096 29.8091
409.900981 76.551 26.5215
412.871292 75.774 35.4221
415.863128 76.429 48.0566
418.876643 77.726 46.9177
421.911996 78.749 39.2410
424.969344 79.530 33.5234
428.048847 80.426 30.7451
431.150666 81.204 22.1177
434.274961 81.311 8.8462
437.421897 80.757 -0.1248
440.591636 80.399 3.5659
443.784345 81.172 11.6182
447.000189 82.511 7.4358
450.239337 83.621 -3.1194
453.501956 84.338 -15.5325
456.788219 84.627 -29.9666
460.098294 84.258 -47.2405
463.432356 83.013 -63.0764
466.790578 81.198 -67.5046
470.173135 80.394 -47.3613
473.580203 81.740 -36.4360
477.011961 83.679 -46.7371
480.468586 85.217 -65.0750
483.950259 86.066 -89.7451
487.457163 85.961 -120.0742
490.989478 84.689 -153.1992
494.547390 82.236 173.3716
498.131084 78.927 134.0488
501.740748 76.022 27.8218
505.376568 75.609 -46.1775
509.038735 77.161 -76.4844
512.727439 79.766 -93.1035
516.442874 82.708 -110.5500
520.185232 85.044 -138.9495
523.954708 86.371 -173.1833
527.751500 86.577 151.8484
531.575805 85.646 121.0854
535.427822 83.918 101.0046
539.307753 82.686 97.7959
543.215800 83.671 107.1460
547.152165 85.768 98.8831
551.117055 87.261 76.5356
555.110677 87.774 51.0361
559.133237 87.360 26.1477
563.184947 86.058 2.8711
567.266018 83.837 -15.4355
571.376661 81.192 -8.8125
575.517092 80.212 31.1465
579.687526 81.338 29.5842
583.888181 82.401 13.6033
588.119275 82.513 -6.5017
592.381030 81.396 -27.1357
596.673667 79.009 -39.5630
600.997410 76.162 -17.7351
605.352485 75.512 32.7476
609.739119 77.500 42.7942
614.157540 79.818 39.9441
618.607979 81.826 33.8701
623.090667 83.564 25.8867
627.605839 85.040 15.8921
632.153730 86.103 2.4553
636.734576 86.655 -12.3267
641.348617 86.965 -24.3994
645.996094 87.514 -34.2456
650.677248 88.284 -48.0693
655.392323 88.724 -68.5708
660.141566 88.390 -92.7004
664.925224 87.202 -115.7698
669.743546 85.443 -134.7402
674.596784 83.648 -150.8455
679.485191 82.371 -167.3206
684.409020 81.815 172.3342
689.368530 81.658 147.6191
694.363979 81.576 122.6787
699.395626 81.758 101.5879
704.463736 81.991 78.3257
709.568570 81.491 54.3640
714.710396 80.380 44.1777
719.889483 80.278 58.3643
725.106099 81.493 57.4814
730.360516 82.722 46.7725
735.653010 84.218 43.0110
740.983855 86.062 35.6094
746.353329 87.458 18.6677
751.761713 87.902 -2.5564
757.209288 87.425 -22.0828
762.696339 86.227 -37.8093
768.223151 84.706 -43.0513
773.790013 83.839 -43.1853
779.397214 83.941 -48.4875
785.045047 84.229 -64.0281
790.733808 83.547 -90.4707
796.463791 81.755 -121.0684
802.235296 80.323 -179.9668
808.048623 81.106 85.5010
813.904077 83.422 46.6316
819.801961 85.482 18.8953
825.742584 86.588 -7.7253
831.726255 87.056 -30.4919
837.753287 87.045 -54.6736
843.823992 86.116 -81.2578
849.938689 84.277 -103.1826
856.097695 82.443 -130.9595
862.301332 81.300 149.2837
868.549922 81.292 48.3823
874.843793 82.422 14.2466
881.183272 83.791 -8.0322
887.568689 84.301 -30.8799
894.000378 83.795 -44.6963
900.478673 83.392 -48.4609
907.003913 83.741 -54.7637
913.576437 84.264 -67.8613
920.196588 84.298 -85.8691
926.864712 83.469 -106.1016
933.581156 81.974 -125.4873
940.346270 80.219 -151.0781
947.160407 78.641 164.8467
954.023921 77.930 76.6104
960.937172 78.348 17.9585
967.900519 79.518 -11.4756
974.914325 80.235 -40.4731
981.978956 79.819 -61.2002
989.094780 79.556 -5.1924
996.262169 80.497 -8.0029
1003.481495 81.386 -27.7686
1010.753136 81.542 -45.6333
1018.077470 81.138 -54.9429
1025.454879 81.380 -47.3892
1032.885748 82.926 -46.9922
1040.370463 85.084 -54.3735
1047.909417 86.817 -75.6411
1055.503000 87.316 -108.5215
1063.151610 86.352 -147.4067
1070.855645 83.979 167.5361
1078.615506 80.746 27.1230
1086.431599 78.503 -32.9805
1094.304330 78.631 -53.2422
1102.234110 79.467 -69.3838
1110.221353 79.818 -80.7109
1118.266475 80.341 -76.6011
1126.369895 81.359 -87.5508
1134.532035 81.659 -107.5786
1142.753322 81.529 -115.3892
1151.034184 81.437 -135.8047
1159.375052 80.379 -170.5913
1167.776361 78.284 146.4980
1176.238550 76.110 73.4604
1184.762060 75.413 -0.4663
1193.347334 76.424 -42.2798
1201.994821 77.027 -84.7837
1210.704971 76.832 -140.7490
1219.478238 77.626 29.4438
1228.315080 79.318 -5.9448
1237.215957 80.470 -35.5703
1246.181334 80.730 -61.1484
1255.211678 80.105 -83.2769
1264.307459 78.622 -98.2666
1273.469152 76.949 -101.7642
1282.697235 76.140 -99.7236
1291.992188 76.411 -100.2266
1301.354495 76.330 -117.6782
1310.784647 74.873 -134.1416
1320.283132 73.157 -129.1943
1329.850448 72.629 -92.9302
1339.487093 72.517 -87.7471
1349.193569 72.617 -91.9644
1358.970381 73.096 -102.4087
1368.818041 74.502 -108.8628
1378.737061 76.200 -133.9082
1388.727958 77.128 -179.3003
1398.791253 77.627 123.4102
1408.927471 78.139 67.4668
1419.137140 78.571 23.2417
1429.420793 78.400 -9.6733
1439.778965 77.888 -29.4155
1450.212197 77.557 -46.1113
1460.721033 77.646 -46.4780
1471.306019 78.762 -42.8066
1481.967709 79.342 -64.2236
1492.706658 78.527 -80.1055
1503.523426 77.587 -80.9551
1514.418576 77.263 -90.3916
1525.392678 76.449 -107.6309
1536.446302 75.263 -108.0479
1547.580025 75.377 -87.8047
1558.794428 76.820 -101.5752
1570.090095 78.456 -128.1738
1581.467615 80.231 -163.1650
1592.927581 81.744 148.4731
1604.470591 82.759 97.1924
1616.097246 83.122 53.4160
1627.808153 83.433 24.1958
1639.603922 84.138 -3.0303
1651.485168 83.956 -34.6851
1663.452510 82.328 -53.9321
1675.506573 80.822 -45.8047
1687.647984 81.291 -46.4390
1699.877377 82.670 -61.8369
1712.195390 83.338 -89.7427
1724.602663 82.472 -124.3682
1737.099845 80.365 -160.2300
1749.687587 78.617 154.2847
1762.366544 79.450 88.2612
1775.137379 82.077 61.9277
1788.000756 84.679 46.0479
1800.957346 85.856 12.7534
1814.007826 86.355 -5.0972
1827.152874 87.292 -20.5527
1840.393177 87.356 -48.4717
1853.729425 86.260 -73.1172
1867.162312 84.868 -91.7236
1880.692540 84.259 -51.8008
1894.320813 85.151 -42.0391
1908.047843 85.925 -64.0630
1921.874344 85.952 -79.5527
1935.801038 85.590 -98.4043
1949.828650 84.397 -121.3384
1963.957912 82.703 -147.6577
1978.189561 81.751 79.5742
1992.524338 82.913 -0.1362
2006.962991 85.464 -19.6543
2021.506272 87.694 -40.8076
2036.154940 88.698 -67.3828
2050.909758 88.481 -92.9409
2065.771495 87.218 -101.4150
