* Measurement data measured by REW V5.31.1
* Source: Scarlett 2i4 USB, MICROPHONE, R, volume: no control
* Format: 512k Log Swept Sine, 1 sweep at -18.0 dBFS with no timing reference
* Dated: May 7, 2024 3:44:57 PM
* REW Settings:
*  C-weighting compensation: Off
*  Target level: 75.0 dB
* Note: ; 
* Measurement: front-l12-r1-p1-r
* Smoothing: 1/48 octave
* Frequency Step: 96 ppo
* Start Frequency: 10.093689 Hz
*
* Freq(Hz) SPL(dB) Phase(degrees)
10.093689 27.665 29.6715
10.166832 28.180 32.7462
10.240505 28.799 34.7834
10.314712 29.433 36.0617
10.389457 30.059 36.8349
10.464743 30.630 37.2638
10.540575 31.114 37.2248
10.616956 31.545 36.8935
10.693891 31.938 36.4746
10.771383 32.301 36.1417
10.849437 32.628 35.8384
10.928057 32.920 35.4952
11.007246 33.195 35.1839
11.087009 33.476 34.9728
11.167350 33.767 34.9185
11.248273 34.061 34.9815
11.329783 34.366 35.0707
11.411883 34.697 35.1021
11.494578 35.063 35.0737
11.577873 35.460 35.0992
11.661771 35.883 35.0246
11.746277 36.325 34.7003
11.831395 36.787 34.0878
11.917130 37.272 33.3649
12.003487 37.768 32.4456
12.090469 38.264 31.2346
12.178081 38.753 29.7155
12.266329 39.241 28.0168
12.355216 39.719 26.1387
12.444747 40.181 24.0597
12.534926 40.624 21.7645
12.625760 41.050 19.3107
12.717251 41.456 16.7533
12.809406 41.841 14.1136
12.902228 42.203 11.3302
12.995723 42.543 8.4554
13.089895 42.863 5.5641
13.184750 43.161 2.6624
13.280292 43.437 -0.3289
13.376526 43.694 -3.3328
13.473458 43.931 -6.2781
13.571093 44.150 -9.2382
13.669434 44.350 -12.2160
13.768489 44.533 -15.1382
13.868261 44.699 -17.9933
13.968756 44.849 -20.8576
14.069979 44.981 -23.6726
14.171936 45.098 -26.3890
14.274632 45.198 -29.0875
14.378072 45.281 -31.7337
14.482261 45.345 -34.2567
14.587206 45.389 -36.7170
14.692910 45.414 -39.1084
14.799381 45.417 -41.3331
14.906624 45.397 -43.4031
15.014643 45.354 -45.3508
15.123446 45.291 -47.0538
15.233036 45.206 -48.4585
15.343421 45.102 -49.6105
15.454606 44.994 -50.4107
15.566596 44.887 -50.7628
15.679398 44.787 -50.6837
15.793018 44.724 -50.2168
15.907460 44.720 -49.3243
16.022732 44.776 -48.0162
16.138840 44.912 -46.6145
16.255788 45.148 -45.2018
16.373585 45.471 -43.8044
16.492234 45.854 -42.8283
16.611744 46.293 -42.2930
16.732119 46.768 -42.1405
16.853367 47.235 -42.5006
16.975494 47.687 -43.3610
17.098505 48.107 -44.5332
17.222408 48.472 -45.9235
17.347209 48.779 -47.6231
17.472914 49.024 -49.2988
17.599530 49.199 -50.8458
17.727063 49.309 -52.3518
17.855521 49.370 -53.3996
17.984909 49.381 -53.9948
18.115235 49.376 -54.0987
18.246506 49.400 -53.4800
18.378727 49.462 -52.1658
18.511907 49.622 -50.4807
18.646052 49.917 -48.4187
18.781169 50.331 -46.3576
18.917265 50.857 -44.9018
19.054347 51.482 -43.8802
19.192423 52.136 -43.6717
19.331499 52.790 -44.2718
19.471583 53.416 -45.4403
19.612682 53.973 -47.1663
19.754804 54.460 -49.3404
19.897956 54.864 -51.5857
20.042144 55.179 -54.0436
20.187378 55.416 -56.3414
20.333664 55.577 -58.3739
20.481010 55.682 -60.1382
20.629424 55.757 -61.3270
20.778913 55.819 -62.0494
20.929486 55.916 -62.3154
21.081150 56.062 -62.0831
21.233912 56.279 -61.7876
21.387782 56.580 -61.4271
21.542767 56.934 -61.3400
21.698874 57.325 -61.6921
21.856113 57.719 -62.3963
22.014492 58.078 -63.5533
22.174018 58.390 -64.9436
22.334700 58.631 -66.3730
22.496546 58.808 -67.7766
22.659566 58.930 -68.7375
22.823766 59.020 -69.3175
22.989157 59.129 -69.2313
23.155745 59.285 -68.5832
23.323542 59.548 -67.6215
23.492554 59.927 -66.4770
23.662790 60.417 -65.8013
23.834261 60.991 -65.5712
24.006973 61.585 -66.1815
24.180938 62.169 -67.4091
24.356163 62.691 -69.1779
24.532658 63.143 -71.2671
24.710431 63.514 -73.3342
24.889493 63.824 -75.2565
25.069853 64.100 -76.6681
25.251519 64.393 -77.6562
25.434502 64.756 -78.0494
25.618811 65.231 -78.3995
25.804456 65.840 -78.7587
25.991445 66.551 -79.9378
26.179790 67.332 -81.8571
26.369500 68.106 -84.9483
26.560584 68.835 -88.8978
26.753053 69.466 -93.7524
26.946917 69.976 -99.0849
27.142185 70.345 -104.9361
27.338869 70.564 -110.7166
27.536977 70.630 -116.5464
27.736522 70.554 -121.7730
27.937512 70.354 -126.4147
28.139959 70.066 -129.9761
28.343872 69.763 -132.4137
28.549264 69.512 -133.5407
28.756143 69.417 -133.9593
28.964522 69.504 -133.7947
29.174411 69.777 -134.1033
29.385821 70.143 -135.4033
29.598763 70.531 -137.6810
29.813248 70.848 -140.9554
30.029287 71.049 -144.7121
30.246891 71.109 -148.8160
30.466073 71.025 -152.6389
30.686842 70.821 -155.9456
30.909212 70.533 -158.4253
31.133193 70.234 -159.8409
31.358797 69.987 -160.3539
31.586035 69.846 -160.1046
31.814921 69.832 -159.7208
32.045465 69.916 -159.4643
32.277680 70.060 -159.5294
32.511577 70.219 -159.8339
32.747169 70.392 -160.1414
32.984469 70.598 -160.3540
33.223488 70.879 -160.4115
33.464239 71.262 -160.6847
33.706735 71.738 -161.4964
33.950987 72.272 -163.1349
34.197010 72.792 -165.8012
34.444816 73.243 -169.2661
34.694417 73.586 -173.2857
34.945827 73.804 -177.5509
35.199059 73.910 178.4325
35.454126 73.942 174.9015
35.711041 73.954 171.9819
35.969818 74.008 169.6784
36.230470 74.154 167.5953
36.493011 74.387 165.2609
36.757455 74.669 162.3737
37.023814 74.941 158.7772
37.292104 75.141 154.5493
37.562338 75.232 150.0651
37.834530 75.209 145.6984
38.108695 75.095 141.7737
38.384846 74.936 138.5618
38.662999 74.803 136.1514
38.943167 74.761 134.2495
39.225365 74.832 132.3626
39.509608 74.994 130.0605
39.795911 75.194 127.1132
40.084289 75.381 123.5325
40.374756 75.521 119.5283
40.667328 75.616 115.3922
40.962020 75.700 111.2938
41.258848 75.817 107.1648
41.557827 76.000 102.7171
41.858972 76.251 97.5464
42.162299 76.536 91.2855
42.467824 76.800 83.7231
42.775564 76.981 74.8322
43.085533 77.032 64.7283
43.397749 76.919 53.6076
43.712227 76.627 41.7034
44.028983 76.153 29.2345
44.348036 75.506 16.3900
44.669400 74.707 3.3346
44.993093 73.789 -9.7853
45.319131 72.799 -22.8342
45.647532 71.792 -35.6667
45.978313 70.832 -48.0988
46.311491 69.983 -59.8804
46.647083 69.304 -70.7057
46.985107 68.851 -80.2903
47.325581 68.667 -88.5100
47.668521 68.766 -95.5022
48.013947 69.113 -101.6034
48.361876 69.637 -107.1205
48.712326 70.262 -112.1313
49.065315 70.955 -116.4988
49.420863 71.733 -120.0897
49.778987 72.637 -123.0316
50.139706 73.687 -125.7755
50.503039 74.856 -128.8477
50.869005 76.095 -132.5504
51.237623 77.369 -136.9137
51.608912 78.671 -141.9126
51.982891 80.004 -147.7014
52.359580 81.347 -154.6327
52.739000 82.640 -163.0532
53.121168 83.804 -173.0812
53.506106 84.761 175.4517
53.893833 85.452 162.8897
54.284370 85.836 149.6797
54.677737 85.896 136.3497
55.073955 85.631 123.4756
55.473043 85.064 111.6585
55.875024 84.249 101.4599
56.279917 83.273 93.2800
56.687745 82.249 87.1967
57.098527 81.279 82.7957
57.512287 80.406 79.4321
57.929045 79.614 76.7430
58.348822 78.886 74.7907
58.771642 78.247 73.7165
59.197525 77.748 73.3135
59.626495 77.413 73.0278
60.058573 77.210 72.3909
60.493782 77.090 71.2778
60.932145 77.022 69.7615
61.373685 76.995 67.8253
61.818424 76.990 65.3378
62.266386 76.972 62.2453
62.717593 76.909 58.6730
63.172071 76.792 54.8499
63.629842 76.628 50.9536
64.090930 76.437 47.0301
64.555359 76.233 43.0599
65.023154 76.032 39.0034
65.494339 75.852 34.7628
65.968938 75.706 30.0872
66.446976 75.583 24.6467
66.928478 75.441 18.2023
67.413469 75.234 10.7508
67.901975 74.934 2.4561
68.394021 74.551 -6.5215
68.889632 74.122 -16.3138
69.388835 73.691 -27.3761
69.891655 73.276 -40.3782
70.398118 72.869 -55.9153
70.908252 72.450 -74.4206
71.422083 72.008 -95.8397
71.939636 71.527 -119.9101
72.460941 70.967 -145.6421
72.986023 70.246 -172.2490
73.514909 69.252 160.9741
74.047629 67.911 133.3029
74.584208 66.366 101.0938
75.124676 65.501 51.7833
75.669061 66.620 -15.9602
76.217390 69.200 -57.6431
76.769692 71.921 -82.7104
77.325997 74.288 -102.0018
77.886333 76.262 -118.5551
78.450730 77.920 -133.3617
79.019216 79.341 -147.0393
79.591822 80.555 -160.2394
80.168577 81.537 -173.4152
80.749512 82.250 173.4059
81.334656 82.683 160.5709
81.924040 82.860 148.4143
82.517696 82.805 136.9694
83.115653 82.506 126.1521
83.717943 81.909 116.2211
84.324598 80.971 108.2380
84.935649 79.759 104.0967
85.551128 78.574 105.9259
86.171066 77.969 113.5089
86.795497 78.314 121.9873
87.424453 79.370 126.9105
88.057967 80.709 127.9186
88.696071 82.091 125.9517
89.338800 83.406 121.6075
89.986185 84.594 115.3091
90.638262 85.626 107.5050
91.295065 86.500 98.4473
91.956626 87.194 88.0398
92.622982 87.645 76.1571
93.294166 87.764 63.0970
93.970214 87.488 49.6597
94.651161 86.810 36.8784
95.337042 85.774 25.6964
96.027894 84.460 16.7688
96.723752 82.967 10.4760
97.424652 81.402 7.0480
98.130631 79.901 6.5750
98.841726 78.636 8.7119
99.557974 77.759 12.0480
100.279412 77.270 14.4940
101.006078 77.005 15.2457
101.738010 76.825 14.8416
102.475245 76.669 13.3553
103.217823 76.451 10.4744
103.965782 76.078 6.9572
104.719161 75.572 4.2632
105.477999 75.078 3.0259
106.242336 74.751 2.4979
107.012212 74.642 1.2726
107.787666 74.672 -1.8458
108.568740 74.688 -7.4143
109.355474 74.530 -15.4160
110.147909 74.075 -25.2955
110.946086 73.285 -35.9064
111.750047 72.285 -46.4443
112.559834 71.316 -58.0183
113.375489 70.543 -73.0104
114.197055 69.992 -92.4250
115.024574 69.705 -115.2308
115.858089 69.762 -139.0370
116.697645 70.137 -161.1746
117.543284 70.682 179.9863
118.395051 71.227 164.7133
119.252990 71.662 153.0010
120.117147 72.029 145.3824
120.987565 72.552 142.3041
121.864291 73.445 141.9811
122.747370 74.635 140.7913
123.636848 75.856 137.1139
124.532771 76.933 131.6968
125.435187 77.806 125.3782
126.344142 78.458 118.7078
127.259684 78.899 112.2838
128.181860 79.169 106.6764
129.110718 79.357 102.5275
130.046308 79.604 100.0569
130.988677 80.010 98.1019
131.937875 80.520 95.1018
132.893951 80.997 90.6697
133.856956 81.329 85.2118
134.826938 81.447 79.3315
135.803950 81.339 74.1404
136.788041 81.103 70.9518
137.779264 80.924 69.9897
138.777669 80.937 70.0283
139.783309 81.133 69.5776
140.796237 81.408 68.0992
141.816504 81.673 65.9055
142.844165 81.888 63.3492
143.879273 82.039 60.6965
144.921881 82.144 58.5260
145.972045 82.305 57.6750
147.029819 82.659 57.7694
148.095257 83.233 57.1775
149.168417 83.935 55.0376
150.249353 84.669 51.3754
151.338121 85.372 46.2855
152.434780 85.998 39.8171
153.539385 86.495 31.9827
154.651995 86.806 22.9303
155.772667 86.884 12.9745
156.901460 86.690 2.5284
158.038432 86.204 -8.0037
159.183644 85.402 -18.2260
160.337154 84.277 -27.4158
161.499023 82.843 -35.3473
162.669312 81.061 -41.5975
163.848081 78.912 -43.4352
165.035392 76.651 -36.3120
166.231306 75.051 -19.0934
167.435887 74.808 -3.9094
168.649196 75.407 1.9482
169.871298 76.070 2.4219
171.102255 76.520 0.7544
172.342133 76.734 -1.6088
173.590995 76.864 -2.4542
174.848907 77.113 -2.8824
176.115934 77.349 -7.2716
177.392143 77.242 -15.1438
178.677599 76.620 -24.3673
179.972371 75.386 -34.5135
181.276525 73.472 -44.6090
182.590129 71.412 -49.6919
183.913252 71.608 68.4191
185.245964 74.438 80.4551
186.588332 77.336 69.6785
187.940428 79.507 56.2267
189.302322 80.957 41.9735
190.674085 81.782 27.7704
192.055788 82.087 14.4709
193.447503 81.995 2.7410
194.849303 81.629 -7.3060
196.261262 81.092 -15.8262
197.683452 80.485 -22.8707
199.115948 79.935 -29.0054
200.558824 79.515 -36.0912
202.012156 79.127 -46.5914
203.476019 78.523 -61.9388
204.950490 77.491 -82.3870
206.435646 76.085 -109.0032
207.931564 74.985 -145.2886
209.438322 75.401 171.7632
210.955998 77.160 136.5674
212.484672 79.031 109.9375
214.024424 80.491 88.7561
215.575333 81.562 71.9946
217.137481 82.377 58.4102
218.710948 83.018 46.7451
220.295818 83.497 35.7310
221.892172 83.718 24.1343
223.500094 83.571 12.7810
225.119668 83.105 3.7703
226.750978 82.477 -2.9634
228.394109 81.726 -9.1694
230.049147 80.754 -14.3572
231.716178 79.563 -15.9761
233.395289 78.363 -13.0371
235.086567 77.556 -5.5840
236.790102 77.856 7.9465
238.505980 79.710 26.4248
240.234293 82.241 33.7546
241.975130 84.369 26.3467
243.728581 85.701 12.6143
245.494739 86.285 -1.4263
247.273695 86.386 -12.6335
249.065542 86.344 -20.5044
250.870374 86.435 -26.4944
252.688284 86.713 -33.3018
254.519367 86.973 -43.1001
256.363720 86.929 -55.8140
258.221437 86.377 -69.6997
260.092616 85.238 -82.3511
261.977354 83.553 -91.6003
263.875750 81.463 -95.7559
265.787903 79.321 -90.9678
267.713911 77.984 -75.5811
269.653877 77.939 -66.1917
271.607900 78.246 -68.8267
273.576083 78.135 -74.0994
275.558528 77.808 -73.6145
277.555338 77.909 -68.1965
279.566619 78.372 -69.9509
281.592474 78.449 -79.4692
283.633009 77.710 -89.6787
285.688331 76.330 -91.8865
287.758546 75.403 -73.9023
289.843763 76.042 -56.0435
291.944090 77.292 -57.0161
294.059638 78.124 -64.5117
296.190515 78.486 -70.8735
298.336833 78.818 -72.6787
300.498705 79.478 -73.4192
302.676243 80.215 -79.4038
304.869559 80.533 -90.1587
307.078770 80.231 -100.7966
309.303989 79.712 -103.8286
311.545334 80.019 -96.4692
313.802919 81.378 -94.5532
316.076865 82.789 -104.7283
318.367288 83.625 -120.7339
320.674309 83.795 -138.0713
322.998047 83.361 -155.1091
325.338624 82.339 -171.2021
327.696162 80.730 176.2500
330.070783 78.832 173.6968
332.462612 77.572 -178.2842
334.871773 77.413 -177.5085
337.298392 77.462 174.1941
339.742595 77.303 168.4028
342.204510 77.602 171.6716
344.684265 78.626 170.5249
347.181989 79.641 160.0291
349.697813 80.252 147.0586
352.231868 80.605 135.6228
354.784285 80.943 125.2556
357.355198 81.215 112.8967
359.944741 81.179 98.9565
362.553049 80.840 87.2932
365.180258 80.536 79.4670
367.826505 80.535 72.0991
370.491927 80.727 62.4294
373.176665 80.850 50.4856
375.880856 80.724 37.1714
378.604644 80.198 22.6343
381.348169 79.106 8.6423
384.111575 77.449 -0.4399
386.895006 75.712 2.0823
389.698607 75.008 13.2659
392.522524 75.634 16.5598
395.366904 76.649 11.1526
398.231895 77.443 1.1477
401.117648 77.935 -10.2502
404.024312 78.158 -23.2073
406.952038 78.059 -37.6409
409.900981 77.671 -52.0576
412.871292 77.034 -67.4714
415.863128 76.086 -83.7153
418.876643 74.820 -99.5989
421.911996 73.374 -114.4006
424.969344 72.035 -128.5002
428.048847 71.117 -144.2881
431.150666 70.719 -163.3652
434.274961 70.844 175.8433
437.421897 71.589 155.8926
440.591636 72.797 135.3906
443.784345 73.599 108.1750
447.000189 73.359 80.4617
450.239337 72.429 65.9302
453.501956 71.975 64.9795
456.788219 71.910 50.8394
460.098294 71.177 33.6992
463.432356 69.876 26.1858
466.790578 68.736 21.2637
470.173135 67.920 10.7112
473.580203 67.221 -10.0713
477.011961 67.071 -59.5024
480.468586 68.394 165.1643
483.950259 70.568 127.8857
487.457163 72.813 107.9329
490.989478 75.004 94.1145
494.547390 76.681 75.0767
498.131084 77.294 49.5430
501.740748 76.625 22.5918
505.376568 75.137 4.0994
509.038735 74.837 77.2283
512.727439 76.700 85.2131
516.442874 78.635 63.2959
520.185232 79.607 38.0044
523.954708 79.502 12.7715
527.751500 78.406 -11.2803
531.575805 76.292 -32.5422
535.427822 73.336 -29.2224
539.307753 71.091 23.4521
543.215800 70.883 22.4961
547.152165 70.953 6.2859
551.117055 70.836 -3.4746
555.110677 72.168 68.2874
559.133237 74.665 72.6045
563.184947 76.825 53.9822
567.266018 78.178 32.7014
571.376661 78.396 7.9746
575.517092 77.245 -14.9619
579.687526 74.864 -25.8560
583.888181 72.115 -18.2913
588.119275 71.020 8.4517
592.381030 72.278 25.7783
596.673667 73.628 14.7434
600.997410 74.145 -0.1040
605.352485 74.516 0.3699
609.739119 75.168 -2.9307
614.157540 74.924 -25.4436
618.607979 73.108 -43.7695
623.090667 70.421 -41.9631
627.605839 69.364 -18.1160
632.153730 71.209 8.0618
636.734576 73.127 -15.1089
641.348617 73.716 -60.0632
645.996094 73.225 -126.2903
650.677248 72.978 159.4192
655.392323 73.686 113.4475
660.141566 74.091 80.5203
664.925224 73.648 58.7383
669.743546 72.864 47.9136
674.596784 72.489 47.1240
679.485191 72.973 48.7368
684.409020 73.706 40.9180
689.368530 74.690 64.3142
694.363979 76.246 76.8015
699.395626 77.708 63.4985
704.463736 78.814 49.4211
709.568570 79.263 32.1377
714.710396 78.675 14.3110
719.889483 77.200 6.1853
725.106099 75.882 15.8408
730.360516 75.492 19.0154
735.653010 75.367 15.2241
740.983855 75.443 19.2227
746.353329 75.762 16.4460
751.761713 76.100 19.9832
757.209288 77.125 44.9109
762.696339 78.272 38.3555
768.223151 79.018 31.1389
773.790013 79.638 24.5105
779.397214 79.944 16.0623
785.045047 80.437 21.7698
790.733808 81.216 18.0125
796.463791 81.562 7.1096
802.235296 81.705 1.5649
808.048623 81.981 -4.8855
813.904077 82.444 -10.9604
819.801961 83.202 -17.5913
825.742584 83.780 -31.7346
831.726255 83.457 -50.7051
837.753287 82.264 -65.6848
843.823992 80.756 -79.0684
849.938689 79.141 -97.6162
856.097695 77.205 -125.4434
862.301332 75.131 137.2847
868.549922 74.170 23.6387
874.843793 74.481 4.4756
881.183272 75.325 -4.4307
887.568689 76.361 -9.3535
894.000378 77.620 -9.4326
900.478673 78.601 -21.6416
907.003913 78.930 -36.1777
913.576437 78.973 -49.7109
920.196588 79.091 -65.9824
926.864712 79.025 -94.7290
933.581156 78.406 -139.3633
940.346270 77.892 150.5444
947.160407 77.993 88.2729
954.023921 79.025 58.3804
960.937172 80.846 39.5942
967.900519 82.547 19.6982
974.914325 83.611 -2.5259
981.978956 83.649 -27.3257
989.094780 82.299 -47.8066
996.262169 80.042 -50.4351
1003.481495 78.934 -36.1191
1010.753136 80.564 -16.3042
1018.077470 82.645 -24.7349
1025.454879 83.231 -49.0869
1032.885748 82.174 -68.2402
1040.370463 80.695 -65.4087
1047.909417 80.403 -61.3354
1055.503000 80.726 -70.3472
1063.151610 81.070 -81.6372
1070.855645 80.838 -102.3530
1078.615506 79.288 -117.9160
1086.431599 77.160 -98.4097
1094.304330 76.222 -92.1377
1102.234110 77.290 -66.8999
1110.221353 79.066 -68.3843
1118.266475 79.487 -95.2988
1126.369895 78.270 -118.9409
1134.532035 76.153 -136.6660
1142.753322 73.910 -142.2695
1151.034184 72.899 -119.5259
1159.375052 73.816 -109.2681
1167.776361 75.865 -115.2734
1176.238550 77.697 -155.2832
1184.762060 78.489 143.7505
1193.347334 77.762 72.3540
1201.994821 75.729 22.9951
1210.704971 73.803 -4.4233
1219.478238 73.197 6.3149
1228.315080 74.124 12.2378
1237.215957 75.238 -10.9253
1246.181334 75.925 -32.5327
1255.211678 76.070 -55.7949
1264.307459 75.187 -82.7222
1273.469152 73.057 -104.0693
1282.697235 71.133 -52.1108
1291.992188 72.438 2.0122
1301.354495 75.520 14.3989
1310.784647 77.888 -5.6904
1320.283132 79.063 -30.7456
1329.850448 79.375 -52.2036
1339.487093 79.352 -68.2964
1349.193569 79.658 -79.1392
1358.970381 80.239 -95.1372
1368.818041 80.344 -118.3281
1378.737061 80.163 -144.5654
1388.727958 79.948 179.9629
1398.791253 79.578 128.7397
1408.927471 78.936 57.9751
1419.137140 78.118 -10.7480
1429.420793 77.102 -63.0244
1439.778965 76.082 -110.6826
1450.212197 75.243 162.0059
1460.721033 74.919 7.7798
1471.306019 75.000 -34.4414
1481.967709 75.345 -67.3691
1492.706658 75.713 -104.3608
1503.523426 76.095 -149.9741
1514.418576 76.682 39.7734
1525.392678 77.653 22.7524
1536.446302 79.016 -6.4731
1547.580025 80.004 -35.9189
1558.794428 79.864 -61.5659
1570.090095 79.080 -74.8091
1581.467615 78.920 -81.0029
1592.927581 79.197 -93.5703
1604.470591 79.136 -106.2529
1616.097246 78.895 -118.5176
1627.808153 78.369 -133.7002
1639.603922 77.542 -146.9639
1651.485168 76.787 -157.6865
1663.452510 75.960 -170.9404
1675.506573 74.719 171.9424
1687.647984 73.088 142.3145
1699.877377 72.129 98.2905
1712.195390 74.273 18.6045
1724.602663 77.162 -34.3262
1737.099845 78.574 -78.0117
1749.687587 79.101 -108.7310
1762.366544 80.355 -139.0049
1775.137379 81.371 163.7461
1788.000756 81.073 44.3066
1800.957346 80.251 -35.7588
1814.007826 80.106 -75.7710
1827.152874 79.977 -107.5859
1840.393177 79.073 -130.0596
1853.729425 78.060 -120.2476
1867.162312 78.221 -118.6357
1880.692540 78.692 -131.1006
1894.320813 79.181 -141.6431
1908.047843 79.791 -154.1821
1921.874344 80.295 -168.4922
1935.801038 79.929 171.5698
1949.828650 78.430 165.1792
1963.957912 77.236 172.2305
1978.189561 76.426 155.0928
1992.524338 74.794 135.3066
2006.962991 73.513 140.7881
2021.506272 75.205 -142.3999
2036.154940 77.800 -144.7539
2050.909758 79.506 -148.7905
2065.771495 79.949 -173.7339
2080.740927 79.305 163.8115
