* Measurement data measured by REW V5.31.1
* Source: Scarlett 2i4 USB, MICROPHONE, R, volume: no control
* Format: 512k Log Swept Sine, 1 sweep at -18.0 dBFS with no timing reference
* Dated: May 7, 2024 1:58:40 PM
* REW Settings:
*  C-weighting compensation: Off
*  Target level: 75.0 dB
* Note: ; 
* Measurement: front-empty-p3-l
* Smoothing: 1/48 octave
* Frequency Step: 96 ppo
* Start Frequency: 10.093689 Hz
*
* Freq(Hz) SPL(dB) Phase(degrees)
10.093689 41.061 61.9369
10.166832 41.189 55.8100
10.240505 41.344 49.7672
10.314712 41.506 43.8746
10.389457 41.679 38.1682
10.464743 41.900 32.6577
10.540575 42.198 27.3691
10.616956 42.540 22.3347
10.693891 42.897 17.5497
10.771383 43.251 12.9790
10.849437 43.604 8.5555
10.928057 43.959 4.2780
11.007246 44.307 0.1613
11.087009 44.639 -3.8067
11.167350 44.949 -7.6991
11.248273 45.241 -11.5799
11.329783 45.514 -15.4012
11.411883 45.762 -19.1362
11.494578 45.983 -22.8313
11.577873 46.179 -26.6108
11.661771 46.347 -30.4082
11.746277 46.485 -34.1632
11.831395 46.592 -37.9076
11.917130 46.668 -41.8147
12.003487 46.709 -45.7970
12.090469 46.713 -49.7608
12.178081 46.678 -53.7641
12.266329 46.604 -58.0251
12.355216 46.482 -62.4080
12.444747 46.303 -66.7665
12.534926 46.070 -71.2966
12.625760 45.778 -76.2193
12.717251 45.402 -81.3115
12.809406 44.920 -86.3632
12.902228 44.347 -91.9751
12.995723 43.651 -98.2556
13.089895 42.752 -104.8824
13.184750 41.515 -111.9411
13.280292 39.901 -121.1509
13.376526 38.311 -133.3389
13.473458 37.291 -150.1185
13.571093 37.028 177.5312
13.669434 37.425 125.6212
13.768489 38.467 90.7289
13.868261 40.220 70.8454
13.968756 42.535 57.7525
14.069979 44.857 47.8851
14.171936 46.779 39.0771
14.274632 48.359 30.7820
14.378072 49.735 23.1713
14.482261 50.980 15.9037
14.587206 52.099 8.4800
14.692910 53.093 1.2277
14.799381 53.991 -5.7167
14.906624 54.803 -12.8163
15.014643 55.524 -20.0157
15.123446 56.162 -26.9216
15.233036 56.724 -33.8464
15.343421 57.205 -41.0294
15.454606 57.607 -47.9420
15.566596 57.931 -54.7493
15.679398 58.174 -61.8893
15.793018 58.331 -68.7693
15.907460 58.400 -75.4635
16.022732 58.378 -82.5073
16.138840 58.251 -89.2631
16.255788 58.016 -95.7977
16.373585 57.662 -102.6425
16.492234 57.161 -109.1012
16.611744 56.514 -115.3247
16.732119 55.680 -121.7089
16.853367 54.582 -127.4846
16.975494 53.210 -132.7496
17.098505 51.474 -137.5656
17.222408 49.117 -140.4985
17.347209 46.014 -138.7246
17.472914 43.655 -119.0896
17.599530 44.123 -47.1671
17.727063 46.566 -21.5170
17.855521 49.045 -18.2404
17.984909 51.148 -20.2499
18.115235 52.960 -23.5687
18.246506 54.361 -27.0884
18.378727 55.388 -31.1606
18.511907 56.187 -34.8630
18.646052 56.811 -38.3512
18.781169 57.280 -41.6748
18.917265 57.646 -44.3658
19.054347 57.913 -46.7355
19.192423 58.122 -48.6165
19.331499 58.293 -49.9431
19.471583 58.444 -50.8702
19.612682 58.603 -51.4216
19.754804 58.774 -51.6183
19.897956 58.966 -51.6961
20.042144 59.183 -51.6384
20.187378 59.415 -51.5677
20.333664 59.658 -51.5619
20.481010 59.904 -51.5898
20.629424 60.145 -51.6782
20.778913 60.380 -51.8113
20.929486 60.608 -51.9434
21.081150 60.830 -52.0787
21.233912 61.049 -52.1952
21.387782 61.266 -52.2882
21.542767 61.485 -52.3622
21.698874 61.705 -52.4221
21.856113 61.928 -52.4565
22.014492 62.153 -52.4608
22.174018 62.383 -52.4257
22.334700 62.624 -52.3199
22.496546 62.881 -52.1678
22.659566 63.166 -51.9828
22.823766 63.482 -51.8038
22.989157 63.836 -51.7723
23.155745 64.224 -51.8936
23.323542 64.635 -52.3745
23.492554 65.056 -53.1587
23.662790 65.460 -54.3410
23.834261 65.834 -55.8335
24.006973 66.153 -57.5068
24.180938 66.411 -59.2874
24.356163 66.602 -60.8413
24.532658 66.740 -62.1210
24.710431 66.853 -62.7233
24.889493 66.987 -62.7047
25.069853 67.207 -61.8735
25.251519 67.563 -60.7002
25.434502 68.101 -59.3886
25.618811 68.790 -58.7926
25.804456 69.601 -59.0327
25.991445 70.440 -60.5801
26.179790 71.259 -63.1958
26.369500 71.991 -66.8314
26.560584 72.612 -71.1765
26.753053 73.095 -76.0202
26.946917 73.433 -80.9914
27.142185 73.622 -86.0083
27.338869 73.677 -90.5155
27.536977 73.614 -94.5157
27.736522 73.483 -97.4526
27.937512 73.346 -99.4036
28.139959 73.286 -100.1342
28.343872 73.386 -100.3045
28.549264 73.683 -100.1827
28.756143 74.149 -100.8659
28.964522 74.713 -102.5378
29.174411 75.285 -105.5222
29.385821 75.781 -109.5836
29.598763 76.155 -114.5272
29.813248 76.365 -120.0453
30.029287 76.398 -125.6530
30.246891 76.244 -131.2792
30.466073 75.908 -136.2471
30.686842 75.413 -140.3344
30.909212 74.795 -143.0757
31.133193 74.144 -144.0233
31.358797 73.580 -143.2005
31.586035 73.218 -140.7214
31.814921 73.150 -137.8333
32.045465 73.331 -135.4370
32.277680 73.673 -134.1682
32.511577 74.042 -134.1715
32.747169 74.363 -134.9965
32.984469 74.603 -136.3131
33.223488 74.757 -137.6631
33.464239 74.855 -138.7057
33.706735 74.932 -139.3365
33.950987 75.028 -139.4860
34.197010 75.180 -139.3102
34.444816 75.403 -139.0658
34.694417 75.693 -138.9791
34.945827 76.030 -139.2758
35.199059 76.376 -140.1084
35.454126 76.695 -141.4523
35.711041 76.953 -143.2150
35.969818 77.120 -145.2480
36.230470 77.174 -147.2308
36.493011 77.116 -148.8098
36.757455 76.966 -149.6458
37.023814 76.769 -149.3890
37.292104 76.601 -147.8087
37.562338 76.553 -145.0889
37.834530 76.676 -141.7155
38.108695 76.971 -138.2360
38.384846 77.403 -135.0315
38.662999 77.929 -132.1492
38.943167 78.538 -129.4086
39.225365 79.249 -126.7915
39.509608 80.075 -124.5234
39.795911 80.997 -122.9070
40.084289 81.971 -122.1224
40.374756 82.949 -122.0968
40.667328 83.913 -122.4916
40.962020 84.895 -122.9138
41.258848 85.960 -123.2505
41.557827 87.162 -123.8217
41.858972 88.503 -125.2581
42.162299 89.928 -128.1583
42.467824 91.344 -132.8064
42.775564 92.664 -139.1381
43.085533 93.825 -146.8639
43.397749 94.791 -155.6013
43.712227 95.550 -164.9478
44.028983 96.100 -174.5308
44.348036 96.454 175.9713
44.669400 96.632 166.8292
44.993093 96.664 158.2598
45.319131 96.582 150.4117
45.647532 96.423 143.3575
45.978313 96.221 137.0959
46.311491 96.002 131.5757
46.647083 95.786 126.7319
46.985107 95.591 122.5072
47.325581 95.437 118.8361
47.668521 95.345 115.6038
48.013947 95.327 112.6275
48.361876 95.384 109.7007
48.712326 95.499 106.6790
49.065315 95.656 103.5336
49.420863 95.848 100.3163
49.778987 96.085 97.0599
50.139706 96.381 93.6956
50.503039 96.742 90.0602
50.869005 97.158 85.9867
51.237623 97.611 81.3900
51.608912 98.092 76.2595
51.982891 98.603 70.5554
52.359580 99.145 64.1081
52.739000 99.702 56.6297
53.121168 100.225 47.8513
53.506106 100.645 37.6767
53.893833 100.888 26.2114
54.284370 100.890 13.7409
54.677737 100.605 0.7021
55.073955 100.001 -12.3618
55.473043 99.072 -24.8240
55.875024 97.835 -36.0087
56.279917 96.347 -45.2673
56.687745 94.714 -52.1528
57.098527 93.070 -56.8380
57.512287 91.516 -60.1741
57.929045 90.050 -62.9943
58.348822 88.596 -65.3995
58.771642 87.091 -66.7962
59.197525 85.556 -66.4958
59.626495 84.068 -64.2953
60.058573 82.708 -60.3335
60.493782 81.555 -54.5311
60.932145 80.761 -46.8704
61.373685 80.478 -38.7750
61.818424 80.655 -32.6664
62.266386 81.046 -29.4998
62.717593 81.443 -28.5973
63.172071 81.759 -29.0283
63.629842 81.969 -30.2071
64.090930 82.065 -31.7203
64.555359 82.063 -32.9935
65.023154 82.035 -33.4885
65.494339 82.086 -33.2186
65.968938 82.279 -32.9476
66.446976 82.580 -33.4745
66.928478 82.906 -34.9382
67.413469 83.214 -36.9014
67.901975 83.525 -38.9796
68.394021 83.882 -41.2298
68.889632 84.290 -44.0186
69.388835 84.713 -47.6175
69.891655 85.113 -51.9409
70.398118 85.477 -56.7167
70.908252 85.820 -61.7860
71.422083 86.159 -67.2083
71.939636 86.487 -73.1528
72.460941 86.777 -79.7200
72.986023 86.997 -86.8368
73.514909 87.125 -94.2796
74.047629 87.159 -101.7638
74.584208 87.123 -109.0199
75.124676 87.065 -115.9388
75.669061 87.031 -122.7178
76.217390 87.035 -129.8347
76.769692 87.034 -137.6819
77.325997 86.961 -146.3096
77.886333 86.761 -155.3679
78.450730 86.420 -164.4209
79.019216 85.952 -173.1050
79.591822 85.381 178.8450
80.168577 84.738 171.6603
80.749512 84.069 165.5752
81.334656 83.441 160.6506
81.924040 82.920 156.6168
82.517696 82.540 153.0481
83.115653 82.303 149.5673
83.717943 82.194 145.8350
84.324598 82.174 141.4783
84.935649 82.182 136.3047
85.551128 82.160 130.4709
86.171066 82.085 124.2855
86.795497 81.962 117.8149
87.424453 81.770 110.8103
88.057967 81.438 103.2373
88.696071 80.892 95.8022
89.338800 80.146 89.8550
89.986185 79.367 86.5472
90.638262 78.835 85.5212
91.295065 78.741 84.6191
91.956626 79.033 81.3196
92.622982 79.449 73.8291
93.294166 79.633 61.5798
93.970214 79.251 45.3969
94.651161 78.044 27.0336
95.337042 75.846 8.9835
96.027894 72.694 -2.9944
96.723752 69.609 66.9552
97.424652 69.079 113.4913
98.130631 70.486 108.2902
98.841726 71.809 101.0867
99.557974 72.634 94.3784
100.279412 73.099 89.5886
101.006078 73.572 88.1814
101.738010 74.422 88.4797
102.475245 75.584 85.8228
103.217823 76.692 78.5842
103.965782 77.510 68.1338
104.719161 77.962 55.7565
105.477999 78.014 42.2395
106.242336 77.659 28.4865
107.012212 76.945 15.5026
107.787666 75.992 3.9518
108.568740 74.978 -6.0575
109.355474 74.111 -15.1102
110.147909 73.568 -24.3898
110.946086 73.415 -34.8547
111.750047 73.648 -46.5402
112.559834 74.242 -59.1110
113.375489 75.113 -72.4718
114.197055 76.111 -86.3256
115.024574 77.130 -99.8490
115.858089 78.152 -112.3752
116.697645 79.166 -124.0455
117.543284 80.115 -135.2731
118.395051 80.934 -146.0764
119.252990 81.586 -156.2489
120.117147 82.065 -165.4257
120.987565 82.431 -172.8551
121.864291 82.839 -178.0428
122.747370 83.437 178.2708
123.636848 84.241 174.5444
124.532771 85.152 169.8260
125.435187 86.057 164.0487
126.344142 86.900 157.6895
127.259684 87.681 151.2302
128.181860 88.421 144.7209
129.110718 89.138 138.1704
130.046308 89.869 131.6240
130.988677 90.610 124.3054
131.937875 91.266 115.4663
132.893951 91.752 105.6321
133.856956 92.075 95.6522
134.826938 92.292 85.8208
135.803950 92.462 76.0774
136.788041 92.600 65.7625
137.779264 92.614 53.9429
138.777669 92.348 40.7629
139.783309 91.716 27.4506
140.796237 90.756 14.9513
141.816504 89.555 3.0187
142.844165 88.149 -9.3566
143.879273 86.502 -23.5043
144.921881 84.518 -41.5352
145.972045 82.146 -67.8503
147.029819 79.889 -124.7415
148.095257 79.259 150.2748
149.168417 80.446 118.1071
150.249353 81.982 101.4099
151.338121 83.289 90.2496
152.434780 84.411 81.8500
153.539385 85.415 74.0334
154.651995 86.268 65.3132
155.772667 86.873 55.1681
156.901460 87.156 44.1519
158.038432 87.120 33.1825
159.183644 86.817 22.5159
160.337154 86.262 11.5697
161.499023 85.375 -0.2140
162.669312 84.005 -12.4241
163.848081 82.010 -23.4489
165.035392 79.360 -31.7070
166.231306 76.402 -31.9095
167.435887 74.879 65.5122
168.649196 76.086 83.4896
169.871298 78.043 79.5309
171.102255 79.727 75.7662
172.342133 80.919 70.0898
173.590995 81.592 64.3109
174.848907 82.074 62.7208
176.115934 82.883 65.6034
177.392143 84.182 68.0621
178.677599 85.634 65.8157
179.972371 86.825 58.5828
181.276525 87.545 48.9728
182.590129 87.829 39.9613
183.913252 87.862 33.0779
185.245964 87.941 29.3424
186.588332 88.454 28.5524
187.940428 89.530 26.7162
189.302322 90.823 19.6262
190.674085 91.873 6.6833
192.055788 92.366 -10.5586
193.447503 92.132 -29.7871
194.849303 91.117 -48.3422
196.261262 89.369 -63.3519
197.683452 87.095 -71.5269
199.115948 84.820 -71.9312
200.558824 83.250 -72.7185
202.012156 82.383 -83.4146
203.476019 81.631 -105.1450
204.950490 81.256 -140.6992
206.435646 82.545 164.2642
207.931564 85.323 116.4590
209.438322 88.167 83.4902
210.955998 90.350 54.5850
212.484672 91.727 27.3687
214.024424 92.537 3.7834
215.575333 93.187 -16.1423
217.137481 93.852 -35.5496
218.710948 94.400 -56.8459
220.295818 94.626 -80.3271
221.892172 94.419 -104.7622
223.500094 93.840 -128.5256
225.119668 93.047 -151.6072
226.750978 92.048 -175.1499
228.394109 90.652 162.2769
230.049147 88.823 145.2588
231.716178 87.067 137.2971
233.395289 86.502 137.2671
235.086567 87.651 137.4705
236.790102 89.368 127.1257
238.505980 90.593 108.4883
240.234293 91.113 88.4707
241.975130 91.067 69.7898
243.728581 90.551 52.6003
245.494739 89.531 36.5903
247.273695 87.906 24.1218
249.065542 86.089 25.6667
250.870374 85.842 52.9788
252.688284 87.680 65.6387
254.519367 89.690 56.8904
256.363720 90.993 41.3726
258.221437 91.510 24.5090
260.092616 91.311 8.4937
261.977354 90.479 -5.0884
263.875750 89.146 -14.1624
265.787903 87.696 -14.3599
267.713911 86.989 -5.4077
269.653877 87.455 0.2900
271.607900 88.362 -2.7820
273.576083 88.958 -11.7773
275.558528 89.001 -21.8132
277.555338 88.652 -28.8501
279.566619 88.191 -33.6677
281.592474 87.781 -36.8181
283.633009 87.686 -36.0886
285.688331 88.083 -36.4065
287.758546 88.693 -41.8030
289.843763 89.284 -49.4480
291.944090 89.751 -59.7915
294.059638 89.879 -73.7559
296.190515 89.513 -89.3403
298.336833 88.654 -105.4509
300.498705 87.286 -122.9690
302.676243 85.289 -141.5881
304.869559 82.664 -159.9153
307.078770 80.160 177.7402
309.303989 80.231 135.8127
311.545334 83.041 85.4912
313.802919 85.876 48.7285
316.076865 87.783 18.0249
318.367288 88.795 -7.4561
320.674309 89.265 -26.9138
322.998047 89.553 -41.8711
325.338624 89.875 -54.2097
327.696162 90.265 -66.3218
330.070783 90.491 -81.0662
332.462612 90.183 -98.4675
334.871773 89.129 -114.3101
337.298392 87.457 -123.9092
339.742595 85.671 -124.5439
342.204510 84.755 -114.4993
344.684265 85.357 -106.6843
347.181989 86.688 -109.9485
349.697813 87.991 -119.0195
352.231868 89.112 -130.3298
354.784285 89.934 -145.0576
357.355198 90.255 -162.8406
359.944741 90.019 179.0757
362.553049 89.283 161.8953
365.180258 88.113 147.1526
367.826505 86.723 137.2319
370.491927 85.609 132.9639
373.176665 85.242 128.9458
375.880856 85.288 117.6472
378.604644 84.921 100.0959
381.348169 83.681 84.5251
384.111575 81.889 81.5911
386.895006 80.429 82.2144
389.698607 79.633 79.6853
392.522524 79.749 86.7290
395.366904 80.880 89.2158
398.231895 82.180 79.2903
401.117648 83.095 64.3301
404.024312 83.159 43.3867
406.952038 82.001 22.9673
409.900981 79.938 17.5535
412.871292 78.332 36.6079
415.863128 78.022 38.3938
418.876643 78.112 33.1519
421.911996 78.791 40.0833
424.969344 80.024 39.6753
428.048847 80.993 29.0198
431.150666 82.115 28.8120
434.274961 83.660 24.7971
437.421897 84.788 7.6313
440.591636 85.482 -7.7957
443.784345 86.366 -19.9219
447.000189 87.299 -38.2690
450.239337 87.830 -61.3108
453.501956 87.821 -86.5654
456.788219 87.266 -112.0447
460.098294 86.404 -136.0906
463.432356 85.410 -161.8142
466.790578 84.046 169.6714
470.173135 81.958 141.4978
473.580203 79.228 122.8530
477.011961 77.546 164.4785
480.468586 79.287 -175.1504
483.950259 82.149 168.1699
487.457163 84.164 141.1184
490.989478 84.915 110.0300
494.547390 84.612 81.1746
498.131084 83.566 54.3694
501.740748 82.199 40.2947
505.376568 82.022 83.3223
509.038735 83.290 77.0366
512.727439 84.495 51.7336
516.442874 84.980 21.9797
520.185232 84.466 -11.5256
523.954708 82.885 -46.2708
527.751500 80.678 -73.0208
531.575805 79.683 -109.7251
535.427822 80.613 173.3892
539.307753 81.580 114.9204
543.215800 81.425 72.1641
547.152165 80.066 56.3191
551.117055 78.641 76.1572
555.110677 78.462 74.7495
559.133237 79.546 73.3042
563.184947 80.834 63.4319
567.266018 81.629 49.2805
571.376661 82.573 44.5894
575.517092 84.314 43.4375
579.687526 85.912 25.3096
583.888181 86.527 -2.6445
588.119275 85.943 -34.3608
592.381030 84.259 -67.2490
596.673667 81.980 -109.1953
600.997410 79.957 178.7500
605.352485 79.515 112.6294
609.739119 80.285 76.8213
614.157540 81.217 54.2734
618.607979 81.904 33.8604
623.090667 81.935 11.9438
627.605839 82.316 21.8843
632.153730 84.002 50.6372
636.734576 85.457 29.3306
641.348617 86.384 11.4634
645.996094 87.820 7.4863
650.677248 89.040 -14.9043
655.392323 89.057 -46.5244
660.141566 88.086 -76.8037
664.925224 86.462 -106.9331
669.743546 84.286 -131.5229
674.596784 82.759 -103.3198
679.485191 83.613 -100.8579
684.409020 85.487 -132.2856
689.368530 87.395 -167.0874
694.363979 88.765 153.2485
699.395626 89.012 109.7847
704.463736 88.136 67.8955
709.568570 86.694 25.8369
714.710396 85.078 -32.0210
719.889483 83.252 -147.1143
725.106099 81.733 149.5649
730.360516 81.944 135.6558
735.653010 83.852 127.7085
740.983855 85.644 110.6919
746.353329 86.901 96.2471
751.761713 87.857 83.3818
757.209288 88.606 72.3818
762.696339 89.368 62.0464
768.223151 89.846 47.8018
773.790013 90.295 39.2412
779.397214 91.006 28.3315
785.045047 91.256 9.2227
790.733808 90.618 -8.0542
796.463791 89.782 -10.7124
802.235296 89.640 -17.5952
808.048623 89.467 -38.6870
813.904077 88.173 -62.8618
819.801961 85.626 -58.1260
825.742584 83.636 -17.0703
831.726255 83.620 -24.3721
837.753287 83.477 -47.3530
843.823992 82.571 -49.1216
849.938689 82.471 8.9824
856.097695 83.180 8.0386
862.301332 83.597 -2.8076
868.549922 84.113 -0.8271
874.843793 84.534 -13.5762
881.183272 84.021 -32.2017
887.568689 83.576 -15.1504
894.000378 84.474 8.2539
900.478673 85.325 -6.1538
907.003913 85.646 -19.7578
913.576437 85.920 -28.6494
920.196588 86.545 -35.0283
926.864712 87.204 -50.1787
933.581156 87.404 -71.5093
940.346270 86.980 -98.7441
947.160407 85.593 -132.5557
954.023921 83.669 -84.4526
960.937172 82.856 -34.5322
967.900519 82.958 -74.4688
974.914325 83.216 -132.0913
981.978956 83.484 83.9478
989.094780 83.474 23.0215
996.262169 83.136 -7.6157
1003.481495 83.294 -17.9790
1010.753136 84.232 -16.5459
1018.077470 84.691 -34.1353
1025.454879 84.269 -50.3335
1032.885748 84.239 -54.2407
1040.370463 84.422 -70.1592
1047.909417 83.368 -90.3276
1055.503000 81.695 -99.9805
1063.151610 81.331 -123.4614
1070.855645 82.662 82.2417
1078.615506 84.003 13.7290
1086.431599 84.552 -21.0288
1094.304330 85.243 -29.4224
1102.234110 86.192 -42.8438
1110.221353 85.898 -70.8604
1118.266475 84.374 -90.0454
1126.369895 82.361 -79.4253
1134.532035 80.440 -82.5918
1142.753322 78.594 -96.8340
1151.034184 77.891 -116.1841
1159.375052 80.031 61.4282
1167.776361 83.410 22.4790
1176.238550 86.398 -5.1187
1184.762060 88.321 -34.4458
1193.347334 88.561 -66.7212
1201.994821 87.325 -88.1934
1210.704971 85.856 -96.7827
1219.478238 85.102 -108.6719
1228.315080 84.620 -125.3003
1237.215957 84.114 -133.8862
1246.181334 84.204 -145.0371
1255.211678 84.143 -174.6064
1264.307459 83.119 150.2896
1273.469152 81.386 117.9932
1282.697235 79.407 79.3779
1291.992188 77.348 43.7754
1301.354495 76.702 37.4707
1310.784647 78.185 26.7725
1320.283132 80.252 4.2227
1329.850448 82.054 -28.2080
1339.487093 83.080 -74.8936
1349.193569 83.465 -160.8989
1358.970381 83.877 70.8931
1368.818041 84.490 22.0703
1378.737061 85.136 -5.1196
1388.727958 85.849 -25.8740
1398.791253 86.292 -45.5620
1408.927471 86.654 -63.0854
1419.137140 87.016 -81.7588
1429.420793 87.209 -107.0122
1439.778965 86.540 -137.4272
1450.212197 85.507 -105.7515
1460.721033 85.613 -75.2251
1471.306019 86.164 -104.6753
1481.967709 85.815 -135.6548
1492.706658 84.688 -159.7173
1503.523426 83.842 177.9219
1514.418576 83.483 144.3604
1525.392678 83.688 92.4155
1536.446302 83.742 4.9170
1547.580025 82.682 -64.2480
1558.794428 81.510 -106.0596
1570.090095 81.746 -108.5332
1581.467615 82.289 -75.3779
1592.927581 82.072 -90.3193
1604.470591 81.835 -98.5000
1616.097246 81.364 -128.0503
1627.808153 79.890 -138.7441
1639.603922 78.501 -135.4180
1651.485168 77.577 -140.6567
1663.452510 78.004 -157.2744
1675.506573 80.991 67.5708
1687.647984 84.334 13.9229
1699.877377 86.726 -26.6143
1712.195390 88.117 -62.5942
1724.602663 88.581 -95.5200
1737.099845 88.674 -124.8975
1749.687587 88.754 -153.5747
1762.366544 88.753 170.2256
1775.137379 88.409 121.1123
1788.000756 87.523 55.3823
1800.957346 86.440 -9.2607
1814.007826 86.377 -53.6128
1827.152874 87.089 -86.5908
1840.393177 87.841 -113.1304
1853.729425 87.839 -143.0669
1867.162312 86.604 -173.2754
1880.692540 84.504 -179.2793
1894.320813 83.320 -141.9590
1908.047843 83.640 -153.5142
1921.874344 83.524 -171.1104
1935.801038 83.363 -137.2998
1949.828650 84.435 -129.0244
1963.957912 86.050 -135.4692
1978.189561 86.709 -154.1763
1992.524338 86.918 -166.9883
2006.962991 87.458 174.0732
