* Measurement data measured by REW V5.31.1
* Source: Scarlett 2i4 USB, MICROPHONE, R, volume: no control
* Format: 512k Log Swept Sine, 1 sweep at -18.0 dBFS with no timing reference
* Dated: May 7, 2024 2:46:48 PM
* REW Settings:
*  C-weighting compensation: Off
*  Target level: 75.0 dB
* Note: ; 
* Measurement: front-frames-p1-l
* Smoothing: 1/48 octave
* Frequency Step: 96 ppo
* Start Frequency: 10.093689 Hz
*
* Freq(Hz) SPL(dB) Phase(degrees)
10.093689 36.516 71.6242
10.166832 36.675 69.4024
10.240505 36.867 66.9806
10.314712 37.063 64.4499
10.389457 37.255 61.8769
10.464743 37.415 59.2668
10.540575 37.527 56.4254
10.616956 37.602 53.4399
10.693891 37.639 50.4457
10.771383 37.634 47.5662
10.849437 37.588 44.6133
10.928057 37.499 41.4934
11.007246 37.362 38.3877
11.087009 37.173 35.5060
11.167350 36.925 32.8646
11.248273 36.620 30.1958
11.329783 36.259 27.6850
11.411883 35.841 25.6250
11.494578 35.345 24.2796
11.577873 34.755 23.5176
11.661771 34.144 23.5255
11.746277 33.609 24.6087
11.831395 33.193 27.1615
11.917130 32.859 31.4998
12.003487 32.691 37.1225
12.090469 32.821 42.9188
12.178081 33.361 48.1082
12.266329 34.268 52.8056
12.355216 35.363 55.9268
12.444747 36.479 56.9560
12.534926 37.584 56.4479
12.625760 38.715 55.1439
12.717251 39.820 52.9867
12.809406 40.844 49.9165
12.902228 41.787 46.2219
12.995723 42.666 42.2285
13.089895 43.485 38.0101
13.184750 44.244 33.4647
13.280292 44.940 28.6092
13.376526 45.579 23.7186
13.473458 46.166 18.8946
13.571093 46.697 13.8464
13.669434 47.174 8.6997
13.768489 47.598 3.7244
13.868261 47.971 -1.1346
13.968756 48.290 -6.1612
14.069979 48.555 -11.0532
14.171936 48.769 -15.6063
14.274632 48.929 -20.1974
14.378072 49.035 -24.6944
14.482261 49.090 -28.7959
14.587206 49.092 -32.6769
14.692910 49.042 -36.4150
14.799381 48.948 -39.7622
14.906624 48.808 -42.6500
15.014643 48.627 -45.2224
15.123446 48.420 -47.3752
15.233036 48.195 -48.9647
15.343421 47.953 -50.0197
15.454606 47.721 -50.6331
15.566596 47.517 -50.7733
15.679398 47.339 -50.3530
15.793018 47.202 -49.6223
15.907460 47.119 -48.7087
16.022732 47.084 -47.5196
16.138840 47.084 -46.2319
16.255788 47.112 -44.9652
16.373585 47.166 -43.6498
16.492234 47.231 -42.1955
16.611744 47.299 -40.6362
16.732119 47.382 -38.9236
16.853367 47.501 -36.8926
16.975494 47.657 -34.5422
17.098505 47.878 -32.0051
17.222408 48.200 -29.4015
17.347209 48.625 -26.7232
17.472914 49.140 -24.4573
17.599530 49.744 -22.7846
17.727063 50.418 -21.6141
17.855521 51.109 -21.3334
17.984909 51.803 -21.7875
18.115235 52.476 -22.8642
18.246506 53.094 -24.6310
18.378727 53.653 -26.9504
18.511907 54.140 -29.5985
18.646052 54.545 -32.6763
18.781169 54.867 -36.0036
18.917265 55.098 -39.3414
19.054347 55.237 -42.9172
19.192423 55.283 -46.2947
19.331499 55.233 -49.5624
19.471583 55.092 -52.6172
19.612682 54.862 -55.0701
19.754804 54.552 -57.0630
19.897956 54.195 -58.1988
20.042144 53.800 -58.2955
20.187378 53.450 -57.3827
20.333664 53.203 -55.2330
20.481010 53.113 -52.1789
20.629424 53.263 -48.9350
20.778913 53.635 -45.7105
20.929486 54.164 -43.5849
21.081150 54.821 -42.4348
21.233912 55.496 -42.4798
21.387782 56.146 -43.6266
21.542767 56.732 -45.4622
21.698874 57.224 -47.9863
21.856113 57.617 -50.7981
22.014492 57.903 -53.7122
22.174018 58.090 -56.6219
22.334700 58.188 -59.1010
22.496546 58.216 -61.2362
22.659566 58.211 -62.5880
22.823766 58.204 -63.2622
22.989157 58.266 -63.2060
23.155745 58.422 -62.5282
23.323542 58.717 -61.7995
23.492554 59.142 -61.1053
23.662790 59.657 -61.1477
23.834261 60.227 -61.7935
24.006973 60.777 -63.2689
24.180938 61.281 -65.3303
24.356163 61.695 -67.7496
24.532658 62.015 -70.3514
24.710431 62.237 -72.6805
24.889493 62.385 -74.6395
25.069853 62.498 -75.7585
25.251519 62.645 -76.1479
25.434502 62.897 -75.6039
25.618811 63.313 -74.8726
25.804456 63.924 -74.1196
25.991445 64.676 -74.4155
26.179790 65.520 -75.6872
26.369500 66.353 -78.3897
26.560584 67.127 -82.1107
26.753053 67.783 -86.8331
26.946917 68.300 -92.0512
27.142185 68.658 -97.7759
27.338869 68.852 -103.3425
27.536977 68.884 -108.8564
27.736522 68.771 -113.5838
27.937512 68.548 -117.5323
28.139959 68.265 -120.1322
28.343872 68.031 -121.4846
28.549264 67.930 -121.4947
28.756143 68.064 -121.0928
28.964522 68.419 -120.9563
29.174411 68.944 -121.8578
29.385821 69.508 -124.1905
29.598763 70.029 -127.7497
29.813248 70.425 -132.3737
30.029287 70.660 -137.4453
30.246891 70.718 -142.8582
30.466073 70.599 -147.9037
30.686842 70.327 -152.3444
30.909212 69.938 -155.8176
31.133193 69.514 -157.9493
31.358797 69.142 -158.8911
31.586035 68.902 -158.7489
31.814921 68.843 -158.4498
32.045465 68.921 -158.5110
32.277680 69.071 -159.3125
32.511577 69.190 -160.8766
32.747169 69.229 -162.7193
32.984469 69.173 -164.5087
33.223488 69.046 -165.6630
33.464239 68.930 -165.9073
33.706735 68.908 -165.3629
33.950987 69.049 -164.3571
34.197010 69.363 -163.7720
34.444816 69.780 -164.1132
34.694417 70.220 -165.5098
34.945827 70.602 -167.8952
35.199059 70.878 -170.8256
35.454126 71.042 -173.9086
35.711041 71.107 -176.8657
35.969818 71.105 -179.4375
36.230470 71.078 178.4582
36.493011 71.055 176.7001
36.757455 71.046 175.1515
37.023814 71.047 173.6714
37.292104 71.038 172.1924
37.562338 71.002 170.8199
37.834530 70.941 169.7035
38.108695 70.871 168.9584
38.384846 70.817 168.6414
38.662999 70.804 168.6130
38.943167 70.840 168.6688
39.225365 70.906 168.6644
39.509608 70.972 168.5284
39.795911 71.014 168.3844
40.084289 71.021 168.4605
40.374756 71.005 169.0469
40.667328 71.006 170.4124
40.962020 71.086 172.7054
41.258848 71.324 175.8774
41.557827 71.792 179.5911
41.858972 72.531 -176.8233
42.162299 73.521 -174.2085
42.467824 74.685 -173.2606
42.775564 75.916 -174.3000
43.085533 77.112 -177.2764
43.397749 78.202 178.0930
43.712227 79.141 172.1881
44.028983 79.909 165.4003
44.348036 80.498 158.0816
44.669400 80.914 150.5344
44.993093 81.168 143.0151
45.319131 81.278 135.7388
45.647532 81.264 128.8851
45.978313 81.152 122.5994
46.311491 80.971 116.9886
46.647083 80.756 112.1061
46.985107 80.541 107.9266
47.325581 80.362 104.3223
47.668521 80.237 101.0736
48.013947 80.168 97.9346
48.361876 80.135 94.7353
48.712326 80.114 91.4559
49.065315 80.092 88.2192
49.420863 80.077 85.1967
49.778987 80.101 82.4697
50.139706 80.204 79.9240
50.503039 80.407 77.2709
50.869005 80.706 74.1931
51.237623 81.076 70.4919
51.608912 81.501 66.0925
51.982891 81.975 60.9120
52.359580 82.493 54.7364
52.739000 83.029 47.2433
53.121168 83.525 38.1616
53.506106 83.904 27.4215
53.893833 84.090 15.1555
54.284370 84.018 1.6578
54.677737 83.641 -12.6470
55.073955 82.929 -27.2511
55.473043 81.867 -41.5768
55.875024 80.468 -54.9987
56.279917 78.777 -66.9020
56.687745 76.892 -76.8263
57.098527 74.973 -84.9825
57.512287 73.178 -92.5846
57.929045 71.573 -101.2770
58.348822 70.105 -112.2014
58.771642 68.710 -125.8325
59.197525 67.452 -142.3273
59.626495 66.569 -161.7005
60.058573 66.346 176.7814
60.493782 66.836 154.8205
60.932145 67.775 133.9855
61.373685 68.834 114.7758
61.818424 69.787 97.0879
62.266386 70.521 80.8136
62.717593 71.003 65.8726
63.172071 71.256 52.4344
63.629842 71.349 40.7496
64.090930 71.387 30.8187
64.555359 71.485 22.3107
65.023154 71.710 14.5204
65.494339 72.056 6.7768
65.968938 72.473 -1.2590
66.446976 72.922 -9.5220
66.928478 73.399 -17.8159
67.413469 73.918 -26.0510
67.901975 74.488 -34.2909
68.394021 75.100 -42.6509
68.889632 75.738 -51.1558
69.388835 76.389 -59.7185
69.891655 77.062 -68.2310
70.398118 77.776 -76.6882
70.908252 78.543 -85.2582
71.422083 79.345 -94.2554
71.939636 80.138 -103.9079
72.460941 80.859 -114.2612
72.986023 81.455 -125.1250
73.514909 81.898 -136.1172
74.047629 82.193 -146.8042
74.584208 82.380 -156.8259
75.124676 82.530 -166.1041
75.669061 82.697 -174.9907
76.217390 82.884 175.8599
76.769692 83.030 165.9453
77.325997 83.052 155.1089
77.886333 82.882 143.5195
78.450730 82.468 131.3203
79.019216 81.756 118.5377
79.591822 80.659 105.2644
80.168577 79.048 91.7996
80.749512 76.775 78.9287
81.334656 73.827 68.7861
81.924040 71.347 83.4657
82.517696 72.255 -151.6392
83.115653 75.293 -156.1072
83.717943 78.041 -165.7842
84.324598 80.103 -177.4312
84.935649 81.531 170.3040
85.551128 82.454 158.6235
86.171066 83.036 148.3163
86.795497 83.430 139.4585
87.424453 83.731 131.5818
88.057967 83.969 124.2653
88.696071 84.158 117.3577
89.338800 84.315 110.8125
89.986185 84.466 104.6428
90.638262 84.660 98.8555
91.295065 84.957 93.0791
91.956626 85.359 86.3782
92.622982 85.768 77.8138
93.294166 86.023 67.1235
93.970214 85.977 54.8287
94.651161 85.536 42.0101
95.337042 84.689 30.0106
96.027894 83.510 19.9901
96.723752 82.138 12.4053
97.424652 80.712 6.9890
98.130631 79.336 3.2587
98.841726 78.088 0.4583
99.557974 76.968 -2.5310
100.279412 75.881 -6.2218
101.006078 74.719 -10.2039
101.738010 73.438 -13.8439
102.475245 72.063 -16.6643
103.217823 70.670 -18.9049
103.965782 69.293 -22.0459
104.719161 67.792 -27.2003
105.477999 65.923 -33.3317
106.242336 63.516 -37.3273
107.012212 60.651 -34.7322
107.787666 57.932 -25.0552
108.568740 56.621 -22.5829
109.355474 57.457 -41.5686
110.147909 59.685 -79.4583
110.946086 62.296 -114.0239
111.750047 64.775 -136.3296
112.559834 67.030 -150.2706
113.375489 69.107 -159.5146
114.197055 71.015 -167.0599
115.024574 72.692 -174.7743
115.858089 74.099 177.1837
116.697645 75.268 169.3711
117.543284 76.235 161.7546
118.395051 76.986 154.1600
119.252990 77.518 147.2148
120.117147 77.910 141.7954
120.987565 78.301 138.2771
121.864291 78.834 136.3203
122.747370 79.572 134.6689
123.636848 80.441 131.8221
124.532771 81.295 127.2764
125.435187 82.025 121.3846
126.344142 82.584 114.8320
127.259684 82.987 108.3290
128.181860 83.301 102.4528
129.110718 83.635 97.4675
130.046308 84.075 92.6768
130.988677 84.572 86.5690
131.937875 84.965 78.5959
132.893951 85.143 69.6896
133.856956 85.127 60.9382
134.826938 85.011 52.5865
135.803950 84.869 43.7488
136.788041 84.633 32.8196
137.779264 84.083 19.1891
138.777669 82.995 3.9291
139.783309 81.249 -11.7166
140.796237 78.791 -27.7943
141.816504 75.697 -46.6511
142.844165 73.021 -124.9937
143.879273 73.321 134.0668
144.921881 75.582 118.7590
145.972045 77.645 107.1615
147.029819 79.085 96.1993
148.095257 79.966 86.1838
149.168417 80.448 77.9694
150.249353 80.711 71.6954
151.338121 80.899 67.0070
152.434780 81.179 64.1790
153.539385 81.684 61.7860
154.651995 82.246 56.1783
155.772667 82.495 46.9868
156.901460 82.217 37.2068
158.038432 81.470 30.1895
159.183644 80.530 27.4930
160.337154 79.701 27.7201
161.499023 79.119 28.7896
162.669312 78.826 30.8510
163.848081 78.924 33.8120
165.035392 79.349 34.2727
166.231306 79.746 30.0416
167.435887 79.784 23.0450
168.649196 79.343 15.6967
169.871298 78.410 10.0393
171.102255 77.140 9.5342
172.342133 75.932 14.6643
173.590995 75.133 21.5784
174.848907 74.841 28.6069
176.115934 75.189 38.1100
177.392143 76.295 47.8907
178.677599 77.728 50.2948
179.972371 78.916 45.8279
181.276525 79.615 38.3931
182.590129 79.850 31.0061
183.913252 79.869 26.3823
185.245964 80.113 25.3813
186.588332 80.751 22.5876
187.940428 81.372 13.4125
189.302322 81.537 -0.2272
190.674085 81.077 -15.8070
192.055788 79.932 -32.2269
193.447503 78.058 -48.1824
194.849303 75.570 -63.1309
196.261262 73.150 -83.9727
197.683452 72.545 -135.0220
199.115948 74.178 163.4976
200.558824 76.259 130.1699
202.012156 77.924 109.2603
203.476019 79.166 95.0344
204.950490 80.182 85.0615
206.435646 81.180 77.8301
207.931564 82.353 72.6626
209.438322 83.627 65.7368
210.955998 84.502 52.4558
212.484672 84.506 35.7075
214.024424 83.576 22.2332
215.575333 82.244 20.6277
217.137481 81.885 35.8777
218.710948 82.995 42.8008
220.295818 84.252 34.5989
221.892172 84.847 20.9365
223.500094 84.633 6.7615
225.119668 83.702 -4.1140
226.750978 82.338 -9.3723
228.394109 80.838 -11.6560
230.049147 79.395 -9.5261
231.716178 78.761 5.3552
233.395289 79.757 22.4609
235.086567 81.480 23.7515
236.790102 82.750 13.3130
238.505980 83.101 -2.1750
240.234293 82.427 -17.7400
241.975130 80.803 -29.3059
243.728581 78.577 -29.9170
245.494739 77.020 5.6431
247.273695 77.611 30.6045
249.065542 79.345 33.2178
250.870374 81.160 32.2117
252.688284 82.633 26.1050
254.519367 83.516 15.9963
256.363720 83.875 6.9722
258.221437 84.077 1.8809
260.092616 84.340 -3.2681
261.977354 84.435 -11.6299
263.875750 84.173 -19.6865
265.787903 83.776 -23.7559
267.713911 83.564 -26.4788
269.653877 83.397 -33.4065
271.607900 82.788 -43.9929
273.576083 81.500 -52.5493
275.558528 79.817 -55.7104
277.555338 78.762 -36.2954
279.566619 79.427 1.5579
281.592474 80.542 -3.2932
283.633009 81.071 -11.7939
285.688331 81.669 -9.9631
287.758546 83.031 -4.9199
289.843763 84.752 -6.8289
291.944090 86.114 -17.2793
294.059638 86.836 -30.9973
296.190515 87.049 -43.5984
298.336833 86.943 -55.4490
300.498705 86.462 -68.5898
302.676243 85.379 -81.8948
304.869559 83.626 -89.7314
307.078770 81.864 -82.4861
309.303989 81.831 -58.7317
311.545334 83.664 -47.9668
313.802919 85.578 -56.2341
316.076865 86.804 -71.6169
318.367288 87.303 -88.7415
320.674309 87.136 -105.9761
322.998047 86.371 -121.6331
325.338624 85.115 -134.5830
327.696162 83.536 -142.5205
330.070783 82.079 -143.0823
332.462612 81.189 -144.3794
334.871773 80.672 -149.5547
337.298392 80.440 -152.2893
339.742595 80.897 -151.5911
342.204510 81.901 -157.3083
344.684265 82.706 -171.7117
347.181989 82.953 171.1221
349.697813 82.740 155.3110
352.231868 82.393 142.5610
354.784285 82.308 132.3347
357.355198 82.556 120.3091
359.944741 82.751 104.4431
362.553049 82.591 87.6311
365.180258 82.124 72.9146
367.826505 81.564 60.5627
370.491927 80.946 48.0095
373.176665 80.062 35.6377
375.880856 78.855 27.0503
378.604644 77.601 24.0974
381.348169 77.043 29.6843
384.111575 78.040 40.7920
386.895006 79.976 42.8064
389.698607 81.506 30.0005
392.522524 81.981 10.9419
395.366904 81.437 -5.1831
398.231895 80.337 -13.7900
401.117648 79.393 -15.6504
404.024312 79.378 -9.3228
406.952038 80.378 -6.7329
409.900981 81.486 -16.0950
412.871292 82.216 -29.2815
415.863128 82.396 -45.6248
418.876643 81.798 -62.8218
421.911996 80.644 -70.3037
424.969344 79.755 -72.7305
428.048847 79.047 -85.8643
431.150666 77.875 -98.4890
434.274961 76.998 -92.3914
437.421897 77.628 -87.5176
440.591636 78.537 -108.2410
443.784345 78.454 -139.8420
447.000189 77.240 -175.1936
450.239337 75.157 146.6150
453.501956 72.765 106.5049
456.788219 71.085 68.7666
460.098294 70.566 36.8462
463.432356 70.383 10.4739
466.790578 70.045 -9.7344
470.173135 70.140 -17.8149
473.580203 71.730 -24.9316
477.011961 74.183 -59.7693
480.468586 76.543 -144.6897
483.950259 78.418 120.5576
487.457163 79.672 68.6289
490.989478 80.133 30.3394
494.547390 79.641 0.9065
498.131084 78.573 -15.1411
501.740748 77.772 -24.9875
505.376568 77.180 -39.6624
509.038735 76.292 -50.8064
512.727439 75.625 -47.1074
516.442874 75.599 -54.4746
520.185232 75.277 -75.0208
523.954708 74.463 -98.6265
527.751500 74.355 -136.2095
531.575805 75.338 46.9507
535.427822 76.181 1.9165
539.307753 76.314 -29.1733
543.215800 76.555 -42.6865
547.152165 78.669 -19.0850
551.117055 81.598 -20.8406
555.110677 83.489 -49.2898
559.133237 84.103 -81.5991
563.184947 84.074 -110.1387
567.266018 83.896 -139.3933
571.376661 83.182 -174.3140
575.517092 81.335 150.0400
579.687526 78.407 123.2998
583.888181 75.634 103.0532
588.119275 74.960 57.4890
592.381030 75.836 -18.6064
596.673667 76.746 -90.1377
600.997410 77.219 -142.3286
605.352485 77.656 178.0786
609.739119 78.209 142.1948
614.157540 78.330 104.7788
618.607979 77.339 70.0791
623.090667 75.601 79.5181
627.605839 74.987 95.9839
632.153730 75.219 67.8721
636.734576 75.268 39.2070
641.348617 75.933 55.2036
645.996094 77.066 66.4570
650.677248 77.460 26.0020
655.392323 76.965 -28.6484
660.141566 76.197 -171.4629
664.925224 76.277 120.2246
669.743546 77.838 95.7979
674.596784 79.825 74.6118
679.485191 81.001 47.5825
684.409020 81.479 23.0054
689.368530 82.037 1.2563
694.363979 82.802 -24.5088
699.395626 83.217 -58.4443
704.463736 82.657 -100.0005
709.568570 80.915 -145.4121
714.710396 78.152 170.9326
719.889483 74.713 -170.1533
725.106099 71.488 -158.4399
730.360516 70.123 -171.0996
735.653010 72.126 -171.6128
740.983855 76.136 -170.5361
746.353329 79.900 178.5972
751.761713 82.222 149.6709
757.209288 82.840 118.0469
762.696339 82.613 98.4282
768.223151 82.812 85.8193
773.790013 83.301 68.9927
779.397214 83.125 48.5913
785.045047 82.189 37.8267
790.733808 81.660 38.9341
796.463791 81.974 34.3340
802.235296 82.827 29.0728
808.048623 84.106 18.4487
813.904077 84.972 -3.0659
819.801961 84.904 -29.2876
825.742584 84.039 -53.8535
831.726255 83.152 -78.4297
837.753287 82.527 -113.4429
843.823992 81.927 -157.2529
849.938689 81.437 158.4624
856.097695 81.617 127.0107
862.301332 83.401 111.8145
868.549922 85.992 96.7231
874.843793 87.818 69.2334
881.183272 88.413 39.3833
887.568689 88.216 14.3247
894.000378 87.614 -8.7700
900.478673 86.716 -29.8101
907.003913 85.826 -50.7954
913.576437 85.041 -77.2251
920.196588 84.344 -112.9390
926.864712 83.767 -163.7266
933.581156 83.260 137.3320
940.346270 83.062 93.3433
947.160407 83.704 64.9634
954.023921 84.386 37.9067
960.937172 84.163 14.3301
967.900519 83.722 5.1406
974.914325 83.759 -8.0586
981.978956 83.138 -32.3784
989.094780 81.528 -52.8794
996.262169 80.834 10.1245
1003.481495 82.685 36.8828
1010.753136 84.616 13.9648
1018.077470 85.412 -11.8462
1025.454879 85.028 -35.5884
1032.885748 83.701 -51.8936
1040.370463 82.513 -53.1123
1047.909417 82.538 -54.8530
1055.503000 82.423 -73.1763
1063.151610 81.224 -87.5869
1070.855645 79.738 -104.7715
1078.615506 78.279 -126.0352
1086.431599 77.566 5.8384
1094.304330 78.563 -12.6875
1102.234110 80.139 -31.3833
1110.221353 80.988 -54.4546
1118.266475 80.806 -75.8418
1126.369895 80.248 -81.3022
1134.532035 79.998 -95.1846
1142.753322 79.275 -122.1880
1151.034184 78.140 -81.4814
1159.375052 77.554 -78.9316
1167.776361 77.109 -118.4673
1176.238550 75.860 -170.6152
1184.762060 74.185 109.9507
1193.347334 73.566 48.6021
1201.994821 74.411 30.8594
1210.704971 76.122 40.9189
1219.478238 77.465 21.6689
1228.315080 78.124 -1.2651
1237.215957 78.419 -20.2227
1246.181334 78.419 -39.4614
1255.211678 77.659 -60.5762
1264.307459 77.080 -46.0547
1273.469152 78.226 23.2520
1282.697235 79.356 1.5605
1291.992188 79.498 -18.3735
1301.354495 79.513 -27.5713
1310.784647 80.034 -34.5591
1320.283132 80.933 -41.3032
1329.850448 81.701 -56.6836
1339.487093 81.562 -79.3203
1349.193569 80.260 -90.5210
1358.970381 78.871 -74.0312
1368.818041 78.419 -79.3950
1378.737061 77.877 -102.0317
1388.727958 77.883 -125.7993
1398.791253 79.710 19.2803
1408.927471 81.374 -14.0601
1419.137140 82.185 -36.3257
1429.420793 82.980 -53.5156
1439.778965 83.110 -79.9800
1450.212197 81.725 -92.4507
1460.721033 79.555 -76.5776
1471.306019 78.719 -62.4292
1481.967709 79.195 -69.1826
1492.706658 79.134 -80.9604
1503.523426 78.807 -78.7646
1514.418576 78.778 -77.7559
1525.392678 78.819 -81.6162
1536.446302 79.271 -75.3062
1547.580025 80.791 -65.9429
1558.794428 83.012 -63.7549
1570.090095 84.678 -78.4502
1581.467615 85.482 -96.5449
1592.927581 85.567 -112.6724
1604.470591 85.409 -123.6958
1616.097246 85.341 -135.9360
1627.808153 84.920 -150.1841
1639.603922 84.413 -157.9546
1651.485168 84.281 -170.3735
1663.452510 84.048 170.1538
1675.506573 83.288 144.0337
1687.647984 81.711 111.0410
1699.877377 79.961 -9.0020
1712.195390 80.045 -110.3994
1724.602663 81.887 -133.0415
1737.099845 83.399 -157.7993
1749.687587 83.296 173.3169
1762.366544 81.930 154.3252
1775.137379 80.361 137.4951
1788.000756 78.599 117.5728
1800.957346 76.667 101.6953
1814.007826 75.533 153.9956
1827.152874 75.771 -179.3975
1840.393177 76.836 -160.4287
1853.729425 78.874 -136.5117
1867.162312 81.079 -155.7524
1880.692540 82.308 174.6299
1894.320813 82.282 145.9922
1908.047843 81.673 124.8013
1921.874344 81.354 110.5405
1935.801038 81.652 88.6934
1949.828650 81.301 48.8887
1963.957912 79.527 2.7739
1978.189561 78.195 -90.2573
1992.524338 79.127 98.7168
2006.962991 80.556 -40.2681
2021.506272 81.376 -123.0815
2036.154940 81.440 -176.3105
2050.909758 81.141 149.9331
