* Measurement data measured by REW V5.31.1
* Source: Scarlett 2i4 USB, MICROPHONE, R, volume: no control
* Format: 512k Log Swept Sine, 1 sweep at -18.0 dBFS with no timing reference
* Dated: May 7, 2024 4:20:43 PM
* REW Settings:
*  C-weighting compensation: Off
*  Target level: 75.0 dB
* Note: ; 
* Measurement: front-l12-r12-p3-c
* Smoothing: 1/48 octave
* Frequency Step: 96 ppo
* Start Frequency: 10.093689 Hz
*
* Freq(Hz) SPL(dB) Phase(degrees)
10.093689 43.666 56.3839
10.166832 44.006 54.7773
10.240505 44.418 52.7699
10.314712 44.840 50.4708
10.389457 45.258 47.9384
10.464743 45.644 45.1488
10.540575 45.981 41.9490
10.616956 46.282 38.5101
10.693891 46.549 35.0095
10.771383 46.780 31.5702
10.849437 46.971 27.9563
10.928057 47.125 24.1042
11.007246 47.242 20.2433
11.087009 47.323 16.5921
11.167350 47.366 13.1236
11.248273 47.369 9.5424
11.329783 47.338 6.0347
11.411883 47.279 2.8490
11.494578 47.188 0.1421
11.577873 47.060 -2.3341
11.661771 46.916 -4.5141
11.746277 46.785 -6.2342
11.831395 46.677 -7.2878
11.917130 46.578 -7.6610
12.003487 46.526 -7.5244
12.090469 46.575 -7.0763
12.178081 46.760 -6.3022
12.266329 47.066 -5.0217
12.355216 47.475 -3.7997
12.444747 47.975 -3.1733
12.534926 48.580 -3.0371
12.625760 49.277 -3.1509
12.717251 50.010 -3.8413
12.809406 50.728 -5.3283
12.902228 51.440 -7.3453
12.995723 52.141 -9.7064
13.089895 52.806 -12.4175
13.184750 53.419 -15.5551
13.280292 53.985 -19.0540
13.376526 54.502 -22.6968
13.473458 54.965 -26.3848
13.571093 55.370 -30.3533
13.669434 55.719 -34.4914
13.768489 56.010 -38.5404
13.868261 56.242 -42.5219
13.968756 56.413 -46.7082
14.069979 56.523 -50.8147
14.171936 56.572 -54.6130
14.274632 56.557 -58.4447
14.378072 56.478 -62.1961
14.482261 56.336 -65.5541
14.587206 56.128 -68.6273
14.692910 55.856 -71.4876
14.799381 55.528 -73.8884
14.906624 55.141 -75.6716
15.014643 54.703 -76.9031
15.123446 54.246 -77.4926
15.233036 53.780 -77.2230
15.343421 53.317 -75.9677
15.454606 52.922 -73.9186
15.566596 52.645 -71.1427
15.679398 52.481 -67.5349
15.793018 52.453 -63.6671
15.907460 52.589 -59.9382
16.022732 52.869 -56.3673
16.138840 53.234 -53.2970
16.255788 53.657 -50.8536
16.373585 54.134 -48.9525
16.492234 54.623 -47.5500
16.611744 55.108 -46.5893
16.732119 55.593 -46.0159
16.853367 56.068 -45.7718
16.975494 56.533 -45.7951
17.098505 56.985 -46.0896
17.222408 57.424 -46.6643
17.347209 57.846 -47.4697
17.472914 58.245 -48.5030
17.599530 58.615 -49.7887
17.727063 58.953 -51.2819
17.855521 59.248 -52.8873
17.984909 59.496 -54.6840
18.115235 59.694 -56.5386
18.246506 59.835 -58.3095
18.378727 59.918 -60.1111
18.511907 59.947 -61.6617
18.646052 59.921 -62.9355
18.781169 59.852 -63.8985
18.917265 59.760 -64.2935
19.054347 59.652 -64.1457
19.192423 59.575 -63.4224
19.331499 59.549 -62.0178
19.471583 59.603 -60.1294
19.612682 59.779 -58.0072
19.754804 60.073 -55.7086
19.897956 60.475 -53.7623
20.042144 60.978 -52.1597
20.187378 61.541 -51.1296
20.333664 62.134 -50.7290
20.481010 62.740 -50.8501
20.629424 63.330 -51.5022
20.778913 63.899 -52.5662
20.929486 64.436 -53.9535
21.081150 64.938 -55.6294
21.233912 65.405 -57.4748
21.387782 65.834 -59.4918
21.542767 66.228 -61.5803
21.698874 66.585 -63.7346
21.856113 66.908 -65.8909
22.014492 67.197 -68.0012
22.174018 67.456 -70.0488
22.334700 67.688 -71.9389
22.496546 67.899 -73.6932
22.659566 68.099 -75.2152
22.823766 68.295 -76.5412
22.989157 68.502 -77.6515
23.155745 68.726 -78.5752
23.323542 68.978 -79.4118
23.492554 69.259 -80.1717
23.662790 69.565 -81.0092
23.834261 69.890 -81.9043
24.006973 70.219 -82.9361
24.180938 70.543 -84.0539
24.356163 70.850 -85.1895
24.532658 71.141 -86.2827
24.710431 71.418 -87.1629
24.889493 71.698 -87.8073
25.069853 72.005 -88.0707
25.251519 72.368 -88.0880
25.434502 72.817 -87.8473
25.618811 73.363 -87.7520
25.804456 74.012 -87.8531
25.991445 74.732 -88.6284
26.179790 75.501 -90.0002
26.369500 76.273 -92.2158
26.560584 77.024 -95.0743
26.753053 77.722 -98.5926
26.946917 78.358 -102.5416
27.142185 78.919 -106.8911
27.338869 79.408 -111.3987
27.536977 79.825 -116.0757
27.736522 80.180 -120.7256
27.937512 80.480 -125.3707
28.139959 80.736 -129.9480
28.343872 80.958 -134.4631
28.549264 81.148 -138.9524
28.756143 81.309 -143.4393
28.964522 81.436 -147.9491
29.174411 81.522 -152.5324
29.385821 81.555 -157.1064
29.598763 81.524 -161.6801
29.813248 81.422 -166.1218
30.029287 81.245 -170.2785
30.246891 80.998 -174.0711
30.466073 80.696 -177.2403
30.686842 80.370 -179.7443
30.909212 80.052 178.5437
31.133193 79.791 177.4949
31.358797 79.616 176.8960
31.586035 79.542 176.5204
31.814921 79.551 175.9611
32.045465 79.612 175.1358
32.277680 79.693 173.9845
32.511577 79.762 172.6340
32.747169 79.817 171.2727
32.984469 79.868 170.0072
33.223488 79.938 168.9543
33.464239 80.055 167.9955
33.706735 80.233 166.9623
33.950987 80.469 165.6577
34.197010 80.736 163.8284
34.444816 80.997 161.4456
34.694417 81.221 158.5530
34.945827 81.379 155.2447
35.199059 81.456 151.7640
35.454126 81.449 148.2980
35.711041 81.365 144.9999
35.969818 81.220 142.0330
36.230470 81.035 139.5161
36.493011 80.835 137.4681
36.757455 80.642 135.8744
37.023814 80.475 134.6739
37.292104 80.351 133.7404
37.562338 80.274 132.9029
37.834530 80.237 132.0188
38.108695 80.226 130.9852
38.384846 80.218 129.7577
38.662999 80.191 128.3756
38.943167 80.131 126.9828
39.225365 80.035 125.7443
39.509608 79.918 124.7839
39.795911 79.798 124.1541
40.084289 79.691 123.8212
40.374756 79.602 123.6958
40.667328 79.521 123.7555
40.962020 79.437 124.1964
41.258848 79.377 125.3962
41.557827 79.422 127.6816
41.858972 79.695 130.9219
42.162299 80.285 134.2163
42.467824 81.167 136.2188
42.775564 82.203 135.9850
43.085533 83.224 133.3867
43.397749 84.112 128.8599
43.712227 84.805 123.0337
44.028983 85.286 116.5112
44.348036 85.562 109.7881
44.669400 85.659 103.2425
44.993093 85.613 97.1308
45.319131 85.464 91.5793
45.647532 85.247 86.5916
45.978313 84.987 82.0888
46.311491 84.690 77.9832
46.647083 84.354 74.2513
46.985107 83.980 70.9622
47.325581 83.577 68.2399
47.668521 83.174 66.1763
48.013947 82.806 64.7404
48.361876 82.505 63.7444
48.712326 82.283 62.9082
49.065315 82.129 61.9798
49.420863 82.022 60.8148
49.778987 81.937 59.3691
50.139706 81.855 57.6477
50.503039 81.758 55.6733
50.869005 81.628 53.5006
51.237623 81.449 51.2467
51.608912 81.215 49.0961
51.982891 80.934 47.2566
52.359580 80.629 45.8743
52.739000 80.331 44.9551
53.121168 80.061 44.3628
53.506106 79.820 43.9302
53.893833 79.593 43.6124
54.284370 79.370 43.5558
54.677737 79.167 44.0271
55.073955 79.035 45.1941
55.473043 79.040 46.8762
55.875024 79.220 48.5044
56.279917 79.550 49.4320
56.687745 79.963 49.2764
57.098527 80.384 48.0493
57.512287 80.764 46.0183
57.929045 81.088 43.5069
58.348822 81.363 40.7710
58.771642 81.613 37.9564
59.197525 81.868 35.0399
59.626495 82.142 31.8250
60.058573 82.427 28.0292
60.493782 82.681 23.4318
60.932145 82.847 18.0688
61.373685 82.881 12.2340
61.818424 82.768 6.4233
62.266386 82.541 1.1187
62.717593 82.265 -3.4902
63.172071 82.000 -7.6060
63.629842 81.764 -11.6659
64.090930 81.529 -15.9071
64.555359 81.260 -20.1720
65.023154 80.966 -24.0854
65.494339 80.702 -27.4634
65.968938 80.536 -30.5464
66.446976 80.498 -33.8123
66.928478 80.578 -37.6785
67.413469 80.752 -42.3877
67.901975 80.995 -48.1224
68.394021 81.269 -55.0626
68.889632 81.528 -63.2220
69.388835 81.739 -72.3945
69.891655 81.899 -82.3444
70.398118 82.030 -92.9390
70.908252 82.146 -104.2866
71.422083 82.226 -116.5190
71.939636 82.222 -129.6250
72.460941 82.080 -143.2119
72.986023 81.773 -156.7185
73.514909 81.320 -169.3560
74.047629 80.798 179.4683
74.584208 80.323 170.0012
75.124676 80.006 161.7956
75.669061 79.873 154.1085
76.217390 79.869 146.3721
76.769692 79.923 138.5216
77.325997 79.996 130.6234
77.886333 80.055 122.6305
78.450730 80.059 114.5054
79.019216 79.966 106.4595
79.591822 79.770 98.9520
80.168577 79.516 92.2242
80.749512 79.248 86.0577
81.334656 78.957 79.9517
81.924040 78.580 73.7034
82.517696 78.044 67.5983
83.115653 77.300 62.2852
83.717943 76.351 58.7996
84.324598 75.305 58.6241
84.935649 74.452 62.7739
85.551128 74.144 69.4657
86.171066 74.428 74.8133
86.795497 75.036 77.3825
87.424453 75.740 77.9025
88.057967 76.424 76.7753
88.696071 77.001 74.4832
89.338800 77.501 72.6227
89.986185 78.180 72.8751
90.638262 79.329 74.1545
91.295065 80.882 72.6345
91.956626 82.498 66.3167
92.622982 83.913 55.7634
93.294166 84.991 41.9636
93.970214 85.653 25.6846
94.651161 85.836 7.7220
95.337042 85.510 -10.9550
96.027894 84.696 -29.3143
96.723752 83.479 -46.5251
97.424652 81.999 -62.2689
98.130631 80.428 -76.8651
98.841726 78.954 -91.0361
99.557974 77.781 -105.6123
100.279412 77.101 -121.3441
101.006078 76.988 -138.4731
101.738010 77.349 -156.4221
102.475245 77.991 -174.1842
103.217823 78.735 169.0271
103.965782 79.446 153.5420
104.719161 80.039 139.4519
105.477999 80.483 126.9468
106.242336 80.813 116.2844
107.012212 81.103 107.3425
107.787666 81.403 99.5641
108.568740 81.727 92.4866
109.355474 82.080 85.9042
110.147909 82.474 79.5391
110.946086 82.900 72.9939
111.750047 83.326 65.9188
112.559834 83.704 58.0453
113.375489 83.967 49.1875
114.197055 84.038 39.4393
115.024574 83.865 29.3793
115.858089 83.456 19.7933
116.697645 82.864 10.9596
117.543284 82.115 2.6609
118.395051 81.180 -4.9597
119.252990 80.045 -10.9517
120.117147 78.799 -14.0253
120.987565 77.662 -13.7837
121.864291 76.858 -12.3065
122.747370 76.363 -12.2352
123.636848 76.000 -13.4321
124.532771 75.743 -14.3551
125.435187 75.732 -15.1818
126.344142 76.023 -17.9392
127.259684 76.499 -23.8610
128.181860 77.021 -33.0035
129.110718 77.516 -44.9307
130.046308 78.016 -59.1847
130.988677 78.594 -75.9324
131.937875 79.279 -95.2594
132.893951 80.078 -116.3965
133.856956 80.964 -138.4172
134.826938 81.823 -160.4922
135.803950 82.535 178.3231
136.788041 83.029 158.6179
137.779264 83.274 140.8989
138.777669 83.349 126.0938
139.783309 83.436 114.0974
140.796237 83.590 103.0044
141.816504 83.672 91.8464
142.844165 83.580 81.5292
143.879273 83.351 73.0508
144.921881 83.090 66.4548
145.972045 82.872 61.0216
147.029819 82.712 56.2260
148.095257 82.635 52.2255
149.168417 82.721 49.0593
150.249353 83.024 45.6080
151.338121 83.468 40.5282
152.434780 83.913 33.4968
153.539385 84.230 24.6259
154.651995 84.322 14.3693
155.772667 84.150 3.5992
156.901460 83.743 -6.9962
158.038432 83.169 -17.2590
159.183644 82.484 -27.8126
160.337154 81.669 -39.6161
161.499023 80.617 -53.4285
162.669312 79.140 -69.3654
163.848081 77.022 -85.3868
165.035392 74.215 -97.0217
166.231306 71.156 -104.6812
167.435887 68.854 -122.8494
168.649196 68.077 -162.3583
169.871298 68.416 150.1516
171.102255 68.838 114.8674
172.342133 68.657 91.2043
173.590995 67.720 77.1541
174.848907 66.481 74.4480
176.115934 66.837 97.6863
177.392143 70.203 144.6685
178.677599 74.458 158.6851
179.972371 78.247 154.4895
181.276525 81.271 140.8578
182.590129 83.507 122.5015
183.913252 84.989 101.7592
185.245964 85.716 79.4460
186.588332 85.648 56.5049
187.940428 84.759 34.3309
189.302322 83.049 14.0782
190.674085 80.516 -3.8058
192.055788 77.297 -18.9633
193.447503 74.792 127.0250
194.849303 75.915 139.2904
196.261262 78.919 131.5923
197.683452 81.635 121.8104
199.115948 83.755 110.1394
200.558824 85.368 97.9254
202.012156 86.559 85.3560
203.476019 87.311 71.9152
204.950490 87.576 58.3760
206.435646 87.379 46.1714
207.931564 86.816 36.4476
209.438322 86.047 30.0402
210.955998 85.294 27.1079
212.484672 84.787 26.6532
214.024424 84.656 26.9506
215.575333 84.879 26.5564
217.137481 85.321 24.2466
218.710948 85.787 19.3677
220.295818 86.066 11.8071
221.892172 86.007 2.8478
223.500094 85.591 -5.6270
225.119668 84.876 -13.1699
226.750978 83.850 -20.3668
228.394109 82.444 -25.3894
230.049147 80.830 -23.3469
231.716178 79.666 -12.0271
233.395289 79.492 -2.2288
235.086567 79.854 -0.3495
236.790102 80.159 -1.9667
238.505980 80.289 -3.6326
240.234293 80.339 -4.9725
241.975130 80.338 -7.2256
243.728581 80.153 -11.3960
245.494739 79.582 -16.6090
247.273695 78.550 -19.0464
249.065542 77.381 -13.2784
250.870374 76.851 0.6094
252.688284 77.458 13.6436
254.519367 78.841 20.9292
256.363720 80.438 22.4805
258.221437 81.874 18.8715
260.092616 82.872 10.5775
261.977354 83.219 -0.6969
263.875750 82.864 -10.9158
265.787903 82.082 -15.0765
267.713911 81.416 -13.3959
269.653877 81.096 -12.8735
271.607900 80.859 -14.6218
273.576083 80.575 -14.5978
275.558528 80.478 -10.9940
277.555338 80.826 -6.7424
279.566619 81.667 -3.4205
281.592474 82.914 -1.7478
283.633009 84.244 -5.3154
285.688331 85.219 -15.1100
287.758546 85.579 -27.8732
289.843763 85.344 -39.6068
291.944090 84.733 -48.5465
294.059638 83.928 -56.1779
296.190515 82.915 -63.5636
298.336833 81.598 -69.4995
300.498705 79.985 -71.5115
302.676243 78.360 -66.7531
304.869559 77.496 -52.9485
307.078770 78.168 -36.6027
309.303989 79.815 -31.1071
311.545334 81.363 -36.9211
313.802919 82.265 -49.4135
316.076865 82.348 -64.1506
318.367288 81.702 -76.6738
320.674309 80.626 -85.0244
322.998047 79.409 -91.4709
325.338624 78.072 -99.0837
327.696162 76.357 -108.8394
330.070783 74.074 -115.5369
332.462612 72.202 -85.1746
334.871773 72.973 -25.3173
337.298392 75.035 -28.7485
339.742595 76.384 -43.6017
342.204510 76.659 -59.0793
344.684265 76.153 -68.6479
347.181989 75.592 -69.5527
349.697813 75.583 -69.5652
352.231868 75.973 -74.0742
354.784285 76.313 -83.2332
357.355198 76.278 -96.1357
359.944741 75.819 -109.8525
362.553049 75.123 -124.0435
365.180258 74.295 -142.4136
367.826505 73.147 -167.7180
370.491927 71.424 160.4727
373.176665 69.238 127.6616
375.880856 68.144 109.7046
378.604644 69.880 98.6919
381.348169 72.368 74.9797
384.111575 74.033 46.4143
386.895006 74.649 18.8057
389.698607 74.519 -3.4656
392.522524 74.261 -20.8914
395.366904 74.207 -41.7478
398.231895 74.197 -71.8557
401.117648 74.353 -114.5085
404.024312 75.055 -170.4651
406.952038 76.117 137.8738
409.900981 77.103 100.5210
412.871292 77.735 72.4309
415.863128 77.770 49.4314
418.876643 77.264 34.1191
421.911996 76.974 32.6245
424.969344 77.537 32.4534
428.048847 78.202 21.7378
431.150666 78.156 6.8337
434.274961 77.198 -5.2363
437.421897 75.735 -4.4297
440.591636 74.971 11.4250
443.784345 75.655 20.2979
447.000189 77.432 26.9111
450.239337 79.829 33.2349
453.501956 82.045 27.2737
456.788219 83.637 13.4897
460.098294 84.829 0.5806
463.432356 85.882 -12.4187
466.790578 86.517 -30.5593
470.173135 86.312 -51.8813
473.580203 85.179 -69.6609
477.011961 83.824 -72.6616
480.468586 83.742 -65.9192
483.950259 84.583 -77.7156
487.457163 84.741 -101.9829
490.989478 83.620 -126.9998
494.547390 81.408 -142.4124
498.131084 79.057 -146.6152
501.740748 77.663 -163.2051
505.376568 77.068 158.9392
509.038735 77.453 12.1584
512.727439 78.767 -59.2891
516.442874 79.753 -99.9333
520.185232 79.733 -134.7983
523.954708 78.824 -163.1912
527.751500 77.456 173.6982
531.575805 76.424 161.7517
535.427822 77.548 -163.9360
539.307753 80.335 -162.2524
543.215800 82.775 175.0527
547.152165 84.314 148.6907
551.117055 85.124 124.7358
555.110677 85.738 106.2874
559.133237 86.329 87.6794
563.184947 86.422 65.7732
567.266018 85.706 45.6001
571.376661 84.361 32.3684
575.517092 82.982 27.3445
579.687526 82.404 28.4749
583.888181 83.057 30.4150
588.119275 84.121 21.9678
592.381030 84.537 4.8064
596.673667 84.080 -12.1252
600.997410 82.957 -27.1106
605.352485 81.205 -40.3459
609.739119 78.969 -46.7800
614.157540 77.352 -42.7913
618.607979 77.975 31.1296
623.090667 79.883 31.8606
627.605839 81.289 14.2998
632.153730 81.929 -1.0156
636.734576 82.214 -11.3640
641.348617 82.780 -15.8589
645.996094 83.780 -23.4653
650.677248 84.629 -38.4883
655.392323 84.885 -57.9331
660.141566 84.403 -78.9604
664.925224 83.189 -99.6426
669.743546 81.309 -118.7178
674.596784 78.861 -137.0225
679.485191 75.830 -154.6089
684.409020 72.690 -158.3225
689.368530 72.252 -88.4956
694.363979 74.799 -96.8706
699.395626 76.842 -137.7251
704.463736 77.205 173.2593
709.568570 76.133 135.7708
714.710396 75.734 127.7620
719.889483 78.383 129.9863
725.106099 82.015 121.7075
730.360516 84.731 97.5195
735.653010 85.943 64.9934
740.983855 85.568 33.5938
746.353329 84.026 14.0110
751.761713 83.055 28.8606
757.209288 84.058 43.0837
762.696339 85.128 25.9297
768.223151 85.328 7.5781
773.790013 85.349 -2.0420
779.397214 86.125 -4.3025
785.045047 87.164 -17.4805
790.733808 87.326 -40.5579
796.463791 86.262 -63.6309
802.235296 84.036 -79.9575
808.048623 81.103 -79.3132
813.904077 78.934 -62.3716
819.801961 79.000 -50.3894
825.742584 80.077 -56.1724
831.726255 80.467 -75.5110
837.753287 79.521 -99.2900
843.823992 77.197 -119.9058
849.938689 74.145 -118.9534
856.097695 73.314 -33.0659
862.301332 76.293 -0.3582
868.549922 79.356 -25.2876
874.843793 81.240 -70.7009
881.183272 82.289 -163.0876
887.568689 82.892 61.6001
894.000378 82.752 10.6602
900.478673 82.142 -15.1025
907.003913 82.691 -18.5859
913.576437 83.920 -41.0083
920.196588 83.957 -79.6221
926.864712 82.371 -124.2744
933.581156 80.763 117.8315
940.346270 81.400 29.6562
947.160407 82.187 -10.5483
954.023921 81.470 -39.6943
960.937172 79.751 -55.3345
967.900519 77.555 -67.4463
974.914325 75.178 -71.4565
981.978956 73.854 -46.5225
989.094780 74.432 -22.3931
996.262169 74.965 -31.8447
1003.481495 75.010 -22.8496
1010.753136 76.103 -10.0386
1018.077470 78.409 -6.1963
1025.454879 81.203 -1.8145
1032.885748 83.386 -16.3296
1040.370463 84.341 -39.2861
1047.909417 84.048 -61.1577
1055.503000 82.868 -75.3159
1063.151610 81.735 -78.2871
1070.855645 81.412 -80.7939
1078.615506 81.270 -90.6182
1086.431599 81.301 -90.1865
1094.304330 81.812 -97.6201
1102.234110 81.587 -118.8936
1110.221353 80.055 -135.6245
1118.266475 77.899 -142.4448
1126.369895 75.989 -151.4126
1134.532035 74.585 -163.8726
1142.753322 74.510 174.6846
1151.034184 76.206 93.6475
1159.375052 78.567 -1.2314
1167.776361 80.519 -50.1538
1176.238550 81.493 -92.5234
1184.762060 81.271 -133.3491
1193.347334 80.013 -174.4224
1201.994821 77.708 143.2319
1210.704971 74.722 106.9502
1219.478238 72.482 96.8486
1228.315080 71.466 61.9858
1237.215957 70.665 28.5864
1246.181334 70.732 10.2183
1255.211678 71.167 -11.3892
1264.307459 71.186 -28.7168
1273.469152 71.619 -23.7886
1282.697235 72.924 -8.5933
1291.992188 73.684 -25.8931
1301.354495 73.591 -34.1572
1310.784647 74.222 -23.5991
1320.283132 75.139 -34.1997
1329.850448 75.487 -47.1733
1339.487093 75.997 -54.7153
1349.193569 76.305 -72.6099
1358.970381 75.630 -92.8296
1368.818041 74.443 -101.9248
1378.737061 73.823 -112.8013
1388.727958 73.452 -138.7861
1398.791253 73.100 -39.1689
1408.927471 73.340 -54.0254
1419.137140 73.672 -83.6616
1429.420793 74.876 -104.3823
1439.778965 76.923 -140.7329
1450.212197 77.998 160.4404
1460.721033 77.386 97.7803
1471.306019 75.505 58.5786
1481.967709 74.292 52.8379
1492.706658 74.633 41.8384
1503.523426 75.390 28.6738
1514.418576 76.397 18.2881
1525.392678 78.085 14.4590
1536.446302 80.227 7.1401
1547.580025 81.831 -11.3877
1558.794428 82.606 -32.9946
1570.090095 82.763 -55.2637
1581.467615 81.932 -81.1240
1592.927581 79.886 -91.6299
1604.470591 78.470 -52.6094
1616.097246 79.208 -55.3428
1627.808153 80.548 -73.5659
1639.603922 81.392 -100.2300
1651.485168 80.783 -136.6714
1663.452510 78.771 -179.8218
1675.506573 76.910 103.5054
1687.647984 76.310 27.2925
1699.877377 76.882 -5.3784
1712.195390 78.520 -15.7061
1724.602663 79.842 -34.4331
1737.099845 79.784 -57.8267
1749.687587 78.952 -72.3276
1762.366544 78.017 -91.6108
1775.137379 77.191 -105.9180
1788.000756 77.474 -10.3555
1800.957346 78.322 -25.7798
1814.007826 79.126 -40.8281
1827.152874 80.779 -32.8911
1840.393177 83.073 -36.8662
1853.729425 84.467 -60.7812
1867.162312 84.663 -84.7485
1880.692540 84.449 -103.6265
1894.320813 84.145 -127.1689
1908.047843 83.044 -160.0928
1921.874344 80.830 159.3237
1935.801038 78.802 90.8486
1949.828650 79.626 23.6499
1963.957912 82.860 -2.8579
1978.189561 85.919 -26.9292
1992.524338 87.501 -61.0918
2006.962991 87.470 -95.6982
2021.506272 86.414 -125.3975
2036.154940 85.115 -156.5288
2050.909758 83.811 160.0195
2065.771495 82.686 84.3574
