* Measurement data measured by REW V5.31.1
* Source: Scarlett 2i4 USB, MICROPHONE, R, volume: no control
* Format: 512k Log Swept Sine, 1 sweep at -18.0 dBFS with no timing reference
* Dated: May 7, 2024 3:09:00 PM
* REW Settings:
*  C-weighting compensation: Off
*  Target level: 75.0 dB
* Note: ; 
* Measurement: front-l1-p1-l
* Smoothing: 1/48 octave
* Frequency Step: 96 ppo
* Start Frequency: 10.093689 Hz
*
* Freq(Hz) SPL(dB) Phase(degrees)
10.093689 39.745 65.6167
10.166832 39.955 61.4748
10.240505 40.209 57.3413
10.314712 40.470 53.3385
10.389457 40.725 49.5844
10.464743 40.945 46.1411
10.540575 41.110 42.7510
10.616956 41.238 39.4214
10.693891 41.337 36.2440
10.771383 41.410 33.3260
10.849437 41.455 30.6027
10.928057 41.472 27.9711
11.007246 41.468 25.4608
11.087009 41.450 23.1258
11.167350 41.421 21.0128
11.248273 41.376 19.0702
11.329783 41.323 17.2480
11.411883 41.272 15.5103
11.494578 41.229 13.8722
11.577873 41.189 12.3993
11.661771 41.155 10.9909
11.746277 41.132 9.5316
11.831395 41.123 7.9655
11.917130 41.128 6.4004
12.003487 41.140 4.7590
12.090469 41.151 2.9321
12.178081 41.153 0.8340
12.266329 41.150 -1.4846
12.355216 41.146 -3.9961
12.444747 41.133 -6.7073
12.534926 41.081 -9.7630
12.625760 40.995 -13.1855
12.717251 40.863 -16.8015
12.809406 40.672 -20.4955
12.902228 40.426 -24.6383
12.995723 40.115 -29.1677
13.089895 39.714 -33.7595
13.184750 39.214 -38.3287
13.280292 38.624 -43.4773
13.376526 37.884 -48.9183
13.473458 36.921 -54.0665
13.571093 35.714 -59.3701
13.669434 34.271 -65.2282
13.768489 32.562 -70.9803
13.868261 30.369 -75.4987
13.968756 27.656 -78.9399
14.069979 25.521 -68.8360
14.171936 25.777 68.0061
14.274632 28.548 68.6070
14.378072 31.952 64.2628
14.482261 34.723 58.6000
14.587206 36.716 51.9522
14.692910 38.308 45.3360
14.799381 39.675 38.9834
14.906624 40.860 32.3163
15.014643 41.848 25.5029
15.123446 42.700 19.0910
15.233036 43.446 12.7601
15.343421 44.073 6.2283
15.454606 44.600 0.1169
15.566596 45.037 -5.6490
15.679398 45.380 -11.5262
15.793018 45.638 -16.9375
15.907460 45.814 -21.8026
16.022732 45.907 -26.5570
16.138840 45.930 -30.7219
16.255788 45.884 -34.1343
16.373585 45.780 -37.0698
16.492234 45.651 -39.2386
16.611744 45.505 -40.4249
16.732119 45.370 -40.7793
16.853367 45.313 -40.4397
16.975494 45.350 -39.2023
17.098505 45.493 -37.4741
17.222408 45.768 -35.8210
17.347209 46.176 -34.1089
17.472914 46.660 -32.7784
17.599530 47.187 -32.0777
17.727063 47.746 -31.8085
17.855521 48.288 -31.9693
17.984909 48.797 -32.5652
18.115235 49.270 -33.4009
18.246506 49.699 -34.3213
18.378727 50.085 -35.3740
18.511907 50.439 -36.3850
18.646052 50.764 -37.3109
18.781169 51.071 -38.1893
18.917265 51.371 -38.9821
19.054347 51.666 -39.6973
19.192423 51.959 -40.4182
19.331499 52.253 -41.1537
19.471583 52.542 -41.9148
19.612682 52.820 -42.7534
19.754804 53.082 -43.6473
19.897956 53.322 -44.5189
20.042144 53.538 -45.4052
20.187378 53.733 -46.1795
20.333664 53.909 -46.7866
20.481010 54.080 -47.2389
20.629424 54.264 -47.4539
20.778913 54.469 -47.4800
20.929486 54.716 -47.4638
21.081150 55.010 -47.3702
21.233912 55.346 -47.5027
21.387782 55.723 -47.8548
21.542767 56.115 -48.5434
21.698874 56.505 -49.6526
21.856113 56.873 -51.0428
22.014492 57.198 -52.7270
22.174018 57.474 -54.5541
22.334700 57.692 -56.3261
22.496546 57.862 -58.0278
22.659566 57.997 -59.3459
22.823766 58.117 -60.3496
22.989157 58.262 -60.8966
23.155745 58.451 -61.0679
23.323542 58.721 -61.1205
23.492554 59.071 -61.1070
23.662790 59.490 -61.4925
23.834261 59.955 -62.2125
24.006973 60.420 -63.4945
24.180938 60.861 -65.1734
24.356163 61.240 -67.0953
24.532658 61.556 -69.1057
24.710431 61.804 -70.8101
24.889493 62.016 -72.1310
25.069853 62.233 -72.6795
25.251519 62.522 -72.6691
25.434502 62.943 -72.0154
25.618811 63.529 -71.5438
25.804456 64.284 -71.3918
25.991445 65.137 -72.4566
26.179790 66.038 -74.5532
26.369500 66.894 -77.9813
26.560584 67.668 -82.3314
26.753053 68.312 -87.5567
26.946917 68.808 -93.1798
27.142185 69.139 -99.2327
27.338869 69.301 -105.0503
27.536977 69.294 -110.7609
27.736522 69.133 -115.6019
27.937512 68.851 -119.5731
28.139959 68.502 -122.0428
28.343872 68.204 -123.0752
28.549264 68.053 -122.5352
28.756143 68.172 -121.4576
28.964522 68.549 -120.6545
29.174411 69.123 -121.0271
29.385821 69.743 -123.0113
29.598763 70.320 -126.3548
29.813248 70.764 -130.8547
30.029287 71.041 -135.8482
30.246891 71.136 -141.2129
30.466073 71.052 -146.2273
30.686842 70.815 -150.6562
30.909212 70.461 -154.1482
31.133193 70.072 -156.3402
31.358797 69.732 -157.3882
31.586035 69.518 -157.3945
31.814921 69.476 -157.2387
32.045465 69.567 -157.4133
32.277680 69.728 -158.2814
32.511577 69.863 -159.8801
32.747169 69.924 -161.7596
32.984469 69.896 -163.6124
33.223488 69.802 -164.8993
33.464239 69.715 -165.3602
33.706735 69.710 -165.1018
33.950987 69.851 -164.4053
34.197010 70.149 -164.0673
34.444816 70.543 -164.5633
34.694417 70.959 -166.0297
34.945827 71.320 -168.4260
35.199059 71.580 -171.3368
35.454126 71.731 -174.3757
35.711041 71.788 -177.2617
35.969818 71.786 -179.7401
36.230470 71.773 178.2567
36.493011 71.784 176.5306
36.757455 71.830 174.8499
37.023814 71.896 172.9697
37.292104 71.943 170.7253
37.562338 71.928 168.2143
37.834530 71.823 165.6826
38.108695 71.621 163.4260
38.384846 71.336 161.7806
38.662999 71.011 161.0529
38.943167 70.710 161.3248
39.225365 70.493 162.3922
39.509608 70.388 163.8763
39.795911 70.385 165.3812
40.084289 70.444 166.6871
40.374756 70.518 167.8741
40.667328 70.589 169.3216
40.962020 70.695 171.5347
41.258848 70.929 174.8411
41.557827 71.414 179.0587
41.858972 72.225 -176.7013
42.162299 73.336 -173.6862
42.467824 74.625 -172.7880
42.775564 75.947 -174.2168
43.085533 77.193 -177.7015
43.397749 78.298 177.2076
43.712227 79.231 170.9687
44.028983 79.983 163.9865
44.348036 80.554 156.5958
44.669400 80.952 149.0735
44.993093 81.192 141.6530
45.319131 81.292 134.5320
45.647532 81.274 127.8773
45.978313 81.165 121.8207
46.311491 80.996 116.4479
46.647083 80.803 111.7783
46.985107 80.619 107.7444
47.325581 80.472 104.1872
47.668521 80.374 100.8920
48.013947 80.318 97.6634
48.361876 80.288 94.4044
48.712326 80.266 91.1486
49.065315 80.252 88.0179
49.420863 80.263 85.1205
49.778987 80.332 82.4386
50.139706 80.486 79.7838
50.503039 80.732 76.8758
50.869005 81.056 73.4807
51.237623 81.440 69.4853
51.608912 81.873 64.8331
51.982891 82.357 59.3878
52.359580 82.881 52.8687
52.739000 83.406 44.9417
53.121168 83.866 35.3925
53.506106 84.180 24.2357
53.893833 84.277 11.6677
54.284370 84.098 -1.9773
54.677737 83.600 -16.2520
55.073955 82.760 -30.6346
55.473043 81.569 -44.5397
55.875024 80.047 -57.3516
56.279917 78.251 -68.5045
56.687745 76.291 -77.7198
57.098527 74.320 -85.5328
57.512287 72.464 -93.4060
57.929045 70.737 -102.9580
58.348822 69.074 -115.2682
58.771642 67.459 -131.0277
59.197525 66.079 -150.8293
59.626495 65.355 -174.4054
60.058573 65.609 160.8800
60.493782 66.649 138.2034
60.932145 67.984 118.3989
61.373685 69.258 100.7479
61.818424 70.299 84.5951
62.266386 71.053 69.7417
62.717593 71.527 56.1690
63.172071 71.774 44.1032
63.629842 71.887 33.7799
64.090930 71.980 25.1318
64.555359 72.159 17.7186
65.023154 72.473 10.8031
65.494339 72.901 3.7830
65.968938 73.393 -3.6130
66.446976 73.914 -11.3311
66.928478 74.456 -19.2488
67.413469 75.023 -27.3400
67.901975 75.610 -35.6656
68.394021 76.202 -44.2656
68.889632 76.781 -53.0598
69.388835 77.349 -61.8428
69.891655 77.931 -70.4586
70.398118 78.565 -78.9474
70.908252 79.265 -87.5972
71.422083 80.000 -96.8116
71.939636 80.710 -106.7776
72.460941 81.331 -117.3914
72.986023 81.826 -128.3549
73.514909 82.187 -139.2786
74.047629 82.434 -149.8586
74.584208 82.604 -159.9095
75.124676 82.744 -169.4578
75.669061 82.888 -178.8003
76.217390 83.030 171.5803
76.769692 83.117 161.3037
77.325997 83.076 150.2438
77.886333 82.842 138.5703
78.450730 82.367 126.4366
79.019216 81.606 113.8574
79.591822 80.478 100.8008
80.168577 78.859 87.3074
80.749512 76.604 73.6672
81.334656 73.766 60.5967
81.924040 71.816 56.6353
82.517696 73.262 -145.2930
83.115653 76.244 -156.3406
83.717943 78.836 -168.0168
84.324598 80.799 179.6013
84.935649 82.188 166.8911
85.551128 83.092 154.5364
86.171066 83.620 143.2388
86.795497 83.899 133.4456
87.424453 84.055 125.1492
88.057967 84.174 117.9486
88.696071 84.297 111.3811
89.338800 84.436 105.1902
89.986185 84.612 99.2903
90.638262 84.861 93.4880
91.295065 85.202 87.2395
91.956626 85.594 79.7297
92.622982 85.922 70.3276
93.294166 86.033 59.0464
93.970214 85.800 46.6257
94.651161 85.163 34.2932
95.337042 84.150 23.3868
96.027894 82.876 14.8496
96.723752 81.505 8.7422
97.424652 80.175 4.3583
98.130631 78.954 0.9348
98.841726 77.855 -2.1139
99.557974 76.845 -5.4087
100.279412 75.839 -9.3071
101.006078 74.735 -13.4351
101.738010 73.493 -16.8800
102.475245 72.173 -19.0359
103.217823 70.887 -20.3746
103.965782 69.694 -22.2378
104.719161 68.529 -25.8414
105.477999 67.224 -31.2573
106.242336 65.648 -36.9410
107.012212 63.908 -41.1296
107.787666 62.456 -45.1263
108.568740 61.925 -53.7504
109.355474 62.644 -70.7080
110.147909 64.248 -94.7788
110.946086 66.078 -119.8917
111.750047 67.790 -140.8162
112.559834 69.385 -156.0637
113.375489 70.935 -166.8928
114.197055 72.412 -175.6877
115.024574 73.742 176.1760
115.858089 74.907 168.5601
116.697645 75.940 161.4276
117.543284 76.843 154.2302
118.395051 77.560 146.6619
119.252990 78.065 139.5179
120.117147 78.442 133.9358
120.987565 78.844 130.2083
121.864291 79.394 127.7415
122.747370 80.131 125.4449
123.636848 80.985 122.0469
124.532771 81.824 117.0303
125.435187 82.546 110.6952
126.344142 83.107 103.6079
127.259684 83.515 96.4034
128.181860 83.830 89.6554
129.110718 84.142 83.4485
130.046308 84.496 77.0386
130.988677 84.829 69.4268
131.937875 85.018 60.4413
132.893951 84.983 50.8292
133.856956 84.740 41.3588
134.826938 84.354 32.1798
135.803950 83.884 22.7760
136.788041 83.316 12.0831
137.779264 82.524 -0.6984
138.777669 81.348 -15.4305
139.783309 79.697 -32.2375
140.796237 77.585 -53.5781
141.816504 75.305 -88.5568
142.844165 74.020 -158.8309
143.879273 74.781 148.3213
144.921881 76.454 123.6156
145.972045 77.943 107.5494
147.029819 79.024 95.1774
148.095257 79.739 85.0247
149.168417 80.178 76.6355
150.249353 80.431 69.6187
151.338121 80.589 64.0461
152.434780 80.820 60.3691
153.539385 81.248 56.8878
154.651995 81.706 50.5079
155.772667 81.852 41.0045
156.901460 81.465 30.9663
158.038432 80.553 23.6395
159.183644 79.343 21.3040
160.337154 78.206 23.8851
161.499023 77.538 29.8013
162.669312 77.641 37.6860
163.848081 78.444 42.6984
165.035392 79.383 40.6062
166.231306 79.950 33.6768
167.435887 79.997 25.9833
168.649196 79.605 19.7562
169.871298 78.918 16.2002
171.102255 78.180 16.6477
172.342133 77.658 19.2803
173.590995 77.405 21.7439
174.848907 77.347 23.8032
176.115934 77.493 26.7209
177.392143 77.960 30.3213
178.677599 78.676 31.3541
179.972371 79.370 28.7650
181.276525 79.836 23.9374
182.590129 80.045 18.8734
183.913252 80.197 16.0447
185.245964 80.616 15.1555
186.588332 81.266 10.8606
187.940428 81.714 1.1030
189.302322 81.636 -11.3529
190.674085 80.958 -23.9901
192.055788 79.677 -35.6960
193.447503 77.796 -44.7628
194.849303 75.396 -50.0863
196.261262 72.709 -53.2593
197.683452 70.752 -41.2141
199.115948 71.522 64.6643
200.558824 73.737 61.1011
202.012156 75.432 49.1954
203.476019 76.375 39.3820
204.950490 76.944 34.1973
206.435646 77.635 33.2285
207.931564 78.782 34.0829
209.438322 80.242 31.7245
210.955998 81.433 21.4069
212.484672 81.810 5.0697
214.024424 81.134 -11.6283
215.575333 79.517 -21.4153
217.137481 77.777 -12.5902
218.710948 77.564 8.9015
220.295818 78.775 12.1361
221.892172 79.842 2.3787
223.500094 80.055 -11.8317
225.119668 79.355 -24.1249
226.750978 78.028 -30.8519
228.394109 76.373 -35.1427
230.049147 74.505 -35.0975
231.716178 73.329 -10.5686
233.395289 74.267 19.8837
235.086567 76.122 21.5039
236.790102 77.401 11.6080
238.505980 77.683 -1.1693
240.234293 77.055 -9.0288
241.975130 76.232 -3.9352
243.728581 76.134 5.8656
245.494739 76.643 8.2024
247.273695 77.255 7.2557
249.065542 78.318 14.8086
250.870374 80.065 21.7798
252.688284 81.710 15.5852
254.519367 82.720 3.6748
256.363720 83.135 -7.7289
258.221437 83.205 -16.9133
260.092616 83.070 -25.5085
261.977354 82.666 -34.3246
263.875750 82.086 -39.0884
265.787903 81.929 -36.5170
267.713911 82.509 -36.5138
269.653877 83.182 -45.4208
271.607900 83.345 -58.8795
273.576083 82.880 -72.3726
275.558528 81.856 -85.2471
277.555338 80.270 -95.8677
279.566619 78.420 -94.9497
281.592474 77.209 -88.5513
283.633009 76.608 -98.5469
285.688331 75.658 -119.6953
287.758546 74.560 -152.6929
289.843763 74.858 29.0679
291.944090 76.443 0.1658
294.059638 77.888 -20.2698
296.190515 78.751 -36.8867
298.336833 78.977 -52.2688
300.498705 78.444 -67.1013
302.676243 77.206 -75.5410
304.869559 76.285 -62.7104
307.078770 77.275 -41.6912
309.303989 79.468 -39.7583
311.545334 81.593 -47.8445
313.802919 83.264 -61.1055
316.076865 84.413 -77.3135
318.367288 85.035 -95.3113
320.674309 85.062 -114.6433
322.998047 84.420 -133.3066
325.338624 83.209 -147.4763
327.696162 81.919 -153.6572
330.070783 81.252 -156.5308
332.462612 81.108 -165.7827
334.871773 80.758 -179.4326
337.298392 80.019 170.0449
339.742595 79.554 168.2529
342.204510 80.068 167.7556
344.684265 80.979 156.7993
347.181989 81.474 139.9919
349.697813 81.403 123.3020
352.231868 80.963 109.0278
354.784285 80.449 97.8010
357.355198 80.100 87.9321
359.944741 79.860 76.5020
362.553049 79.481 63.6682
365.180258 78.860 51.8525
367.826505 78.076 41.3110
370.491927 77.018 28.8643
373.176665 75.365 17.9968
375.880856 73.462 23.3240
378.604644 73.183 53.9756
381.348169 75.141 66.7529
384.111575 77.575 62.6892
386.895006 79.550 50.4866
389.698607 80.723 32.1997
392.522524 81.034 12.4966
395.366904 80.646 -5.3308
398.231895 79.706 -21.2759
401.117648 78.243 -33.8220
404.024312 76.547 -36.6638
406.952038 75.361 -34.2407
409.900981 74.891 -37.1431
412.871292 74.741 -42.3135
415.863128 74.620 -50.0999
418.876643 74.236 -61.0964
421.911996 73.617 -68.0093
424.969344 73.082 -75.9470
428.048847 72.241 -91.6782
431.150666 71.134 -97.9812
434.274961 71.475 -77.5237
437.421897 73.298 -82.5405
440.591636 74.708 -108.9387
443.784345 75.108 -139.5964
447.000189 74.782 -166.6140
450.239337 74.557 173.8418
453.501956 75.200 158.0347
456.788219 76.402 139.2739
460.098294 77.298 115.2703
463.432356 77.374 89.7297
466.790578 76.632 67.9033
470.173135 75.357 51.2876
473.580203 73.819 38.3115
477.011961 72.414 29.0171
480.468586 72.253 48.2646
483.950259 73.732 86.7239
487.457163 75.157 71.0151
490.989478 75.696 51.5552
494.547390 75.735 39.6516
498.131084 75.921 32.8887
501.740748 76.117 20.4827
505.376568 75.866 5.3801
509.038735 75.110 -8.7124
512.727439 74.146 -20.3657
516.442874 73.161 -39.7314
520.185232 71.797 -73.0068
523.954708 70.571 -151.9324
527.751500 71.047 116.9207
531.575805 72.388 82.8328
535.427822 73.415 62.9316
539.307753 74.839 57.7280
543.215800 76.852 48.6497
547.152165 78.822 32.0068
551.117055 80.298 8.5833
555.110677 80.711 -23.9824
559.133237 79.791 -60.3020
563.184947 78.027 -97.8713
567.266018 76.716 -142.4114
571.376661 76.982 165.9309
575.517092 77.931 119.7517
579.687526 78.535 83.5645
583.888181 78.750 55.9683
588.119275 78.740 32.3706
592.381030 78.370 8.2122
596.673667 77.279 -17.9927
600.997410 75.266 -45.1362
605.352485 72.640 -76.8489
609.739119 71.021 118.4561
614.157540 71.677 73.5935
618.607979 72.466 45.8838
623.090667 73.063 45.0225
627.605839 74.644 57.8137
632.153730 76.282 35.8921
636.734576 76.917 1.5176
641.348617 76.245 -40.6357
645.996094 74.377 -120.2998
650.677248 72.342 85.4834
655.392323 72.562 112.9258
660.141566 75.027 121.0288
664.925224 77.293 100.6045
669.743546 78.758 80.4604
674.596784 79.881 66.0601
679.485191 80.905 52.3169
684.409020 81.465 34.0503
689.368530 81.440 15.5454
694.363979 80.799 -5.4517
699.395626 79.209 -27.8906
704.463736 76.630 -46.7720
709.568570 73.789 -20.8906
714.710396 72.278 46.5542
719.889483 72.234 42.1021
725.106099 73.123 46.9741
730.360516 74.231 42.2529
735.653010 75.136 35.1694
740.983855 76.061 24.3188
746.353329 76.959 9.4106
751.761713 78.063 83.0264
757.209288 79.071 79.0620
762.696339 79.845 64.5063
768.223151 81.342 64.4536
773.790013 83.086 54.8462
779.397214 83.925 35.9355
785.045047 83.881 22.7280
790.733808 84.045 22.1611
796.463791 84.594 14.7769
802.235296 84.863 4.5439
808.048623 85.261 -1.2407
813.904077 85.869 -11.8613
819.801961 86.327 -25.9194
825.742584 86.506 -42.1807
831.726255 86.215 -62.1001
837.753287 85.262 -83.6143
843.823992 83.645 -105.8154
849.938689 81.577 -126.4785
856.097695 80.200 -151.0918
862.301332 81.033 173.7974
868.549922 83.410 129.5151
874.843793 85.412 84.1636
881.183272 86.549 45.5713
887.568689 87.055 13.7368
894.000378 87.017 -14.5117
900.478673 86.447 -40.1074
907.003913 85.431 -64.4531
913.576437 83.898 -89.6094
920.196588 81.768 -116.0361
926.864712 79.202 -151.7407
933.581156 76.728 146.9009
940.346270 76.154 82.0439
947.160407 77.758 49.6528
954.023921 79.364 24.7251
960.937172 80.059 2.5239
967.900519 80.146 -12.7578
974.914325 80.157 -24.8926
981.978956 79.697 -42.8872
989.094780 78.389 -50.5249
996.262169 78.073 -11.8066
1003.481495 80.225 2.7075
1010.753136 82.448 -11.2339
1018.077470 83.378 -35.5635
1025.454879 82.891 -59.6709
1032.885748 81.192 -76.2651
1040.370463 78.993 -78.8789
1047.909417 77.608 -73.0859
1055.503000 77.530 -70.6260
1063.151610 78.176 -56.4258
1070.855645 78.540 -67.8125
1078.615506 77.495 -83.7822
1086.431599 76.040 -68.0518
1094.304330 76.634 -50.5884
1102.234110 78.555 -54.2427
1110.221353 79.990 -71.1523
1118.266475 80.757 -90.3564
1126.369895 81.508 -105.1577
1134.532035 82.408 -125.1577
1142.753322 82.358 -159.3379
1151.034184 80.871 167.1089
1159.375052 79.105 141.3726
1167.776361 78.735 111.4707
1176.238550 79.157 74.2139
1184.762060 78.814 36.8945
1193.347334 77.470 9.6807
1201.994821 75.944 -7.3701
1210.704971 75.049 -15.5073
1219.478238 74.860 -23.0879
1228.315080 74.242 -36.5269
1237.215957 73.050 -44.2573
1246.181334 72.067 -44.9644
1255.211678 72.195 -20.5322
1264.307459 74.440 24.5815
1273.469152 77.454 29.9292
1282.697235 79.570 9.5469
1291.992188 80.593 -12.7773
1301.354495 81.011 -30.5957
1310.784647 81.259 -45.7788
1320.283132 81.379 -61.8345
1329.850448 81.270 -81.5698
1339.487093 80.456 -107.2549
1349.193569 78.416 -131.0737
1358.970381 75.610 -118.9009
1368.818041 73.663 -81.9648
1378.737061 72.285 -88.4971
1388.727958 72.007 -27.1973
1398.791253 74.102 -3.5498
1408.927471 76.449 -18.9014
1419.137140 78.479 -23.6206
1429.420793 80.159 -38.8999
1439.778965 80.416 -70.0430
1450.212197 79.140 -82.5815
1460.721033 78.232 -28.2148
1471.306019 78.980 -25.2935
1481.967709 79.624 -47.5723
1492.706658 79.781 -63.4497
1503.523426 80.007 -70.9619
1514.418576 80.228 -83.2158
1525.392678 79.845 -106.2236
1536.446302 79.155 -51.4609
1547.580025 79.750 -22.9551
1558.794428 81.575 -38.5190
1570.090095 83.105 -57.0859
1581.467615 83.893 -75.6777
1592.927581 83.956 -92.0859
1604.470591 83.820 -103.7002
1616.097246 83.872 -114.9453
1627.808153 84.018 -127.4663
1639.603922 84.257 -141.8750
1651.485168 83.985 -165.4253
1663.452510 82.635 169.1313
1675.506573 81.182 139.8794
1687.647984 80.890 36.1729
1699.877377 81.330 -63.8735
1712.195390 81.984 -94.9097
1724.602663 82.968 -115.0962
1737.099845 83.444 -140.1616
1749.687587 82.752 -162.9385
1762.366544 81.442 -175.1904
1775.137379 80.274 169.9194
1788.000756 78.881 155.9219
1800.957346 78.026 -165.1543
1814.007826 79.037 -120.9312
1827.152874 80.306 -132.0752
1840.393177 81.066 -148.5571
1853.729425 81.918 -160.3745
1867.162312 83.001 -170.7051
1880.692540 83.537 169.4805
1894.320813 82.975 151.1958
1908.047843 82.079 142.9038
1921.874344 81.981 142.4805
1935.801038 82.405 127.7734
1949.828650 81.565 101.8477
1963.957912 79.309 110.1572
1978.189561 77.226 148.6191
1992.524338 76.687 147.2817
2006.962991 77.973 153.1641
2021.506272 80.291 162.1655
2036.154940 81.978 140.9668
2050.909758 82.762 115.0767
2065.771495 82.812 82.2661
