* Measurement data measured by REW V5.31.1
* Source: Scarlett 2i4 USB, MICROPHONE, R, volume: no control
* Format: 512k Log Swept Sine, 1 sweep at -18.0 dBFS with no timing reference
* Dated: May 7, 2024 2:47:09 PM
* REW Settings:
*  C-weighting compensation: Off
*  Target level: 75.0 dB
* Note: ; 
* Measurement: front-frames-p1-r
* Smoothing: 1/48 octave
* Frequency Step: 96 ppo
* Start Frequency: 10.093689 Hz
*
* Freq(Hz) SPL(dB) Phase(degrees)
10.093689 35.859 -15.3605
10.166832 35.626 -18.0526
10.240505 35.340 -20.3752
10.314712 35.045 -22.2013
10.389457 34.752 -23.3023
10.464743 34.483 -23.3671
10.540575 34.238 -22.1761
10.616956 34.048 -19.9150
10.693891 33.995 -16.9540
10.771383 34.169 -13.8681
10.849437 34.613 -10.4658
10.928057 35.277 -6.9641
11.007246 36.068 -4.2107
11.087009 36.906 -2.7595
11.167350 37.776 -2.5016
11.248273 38.710 -2.7863
11.329783 39.659 -3.6987
11.411883 40.560 -5.3103
11.494578 41.381 -7.6364
11.577873 42.145 -10.3954
11.661771 42.853 -13.3961
11.746277 43.503 -16.5722
11.831395 44.090 -20.0090
11.917130 44.614 -23.7956
12.003487 45.076 -27.6848
12.090469 45.479 -31.5152
12.178081 45.823 -35.3910
12.266329 46.107 -39.5581
12.355216 46.328 -43.7502
12.444747 46.486 -47.7363
12.534926 46.582 -51.7116
12.625760 46.614 -55.8918
12.717251 46.575 -59.9914
12.809406 46.462 -63.7367
12.902228 46.277 -67.4795
12.995723 46.011 -71.2406
13.089895 45.654 -74.7093
13.184750 45.197 -77.6481
13.280292 44.640 -80.3608
13.376526 43.976 -82.6556
13.473458 43.185 -84.0981
13.571093 42.213 -84.3586
13.669434 41.139 -83.1896
13.768489 40.142 -80.1068
13.868261 39.323 -74.3227
13.968756 38.666 -64.9532
14.069979 38.358 -53.4026
14.171936 38.645 -42.6734
14.274632 39.569 -33.8477
14.378072 40.791 -27.9416
14.482261 41.962 -24.9499
14.587206 43.031 -24.0896
14.692910 44.033 -24.5536
14.799381 44.914 -25.8733
14.906624 45.642 -28.0049
15.014643 46.239 -30.7403
15.123446 46.724 -33.6297
15.233036 47.101 -36.7079
15.343421 47.369 -40.1476
15.454606 47.534 -43.4962
15.566596 47.601 -46.6903
15.679398 47.567 -50.0387
15.793018 47.431 -53.1089
15.907460 47.194 -55.7279
16.022732 46.855 -58.1537
16.138840 46.422 -59.9749
16.255788 45.886 -60.8762
16.373585 45.273 -60.8683
16.492234 44.664 -59.6335
16.611744 44.071 -56.6701
16.732119 43.577 -51.9447
16.853367 43.373 -46.1232
16.975494 43.524 -39.3886
17.098505 43.953 -32.9743
17.222408 44.600 -28.1754
17.347209 45.450 -24.7948
17.472914 46.349 -22.9255
17.599530 47.188 -22.4625
17.727063 47.979 -22.9642
17.855521 48.692 -24.0698
17.984909 49.314 -25.7622
18.115235 49.855 -27.7580
18.246506 50.325 -29.8039
18.378727 50.725 -32.0193
18.511907 51.072 -34.1379
18.646052 51.375 -36.1348
18.781169 51.641 -38.0383
18.917265 51.891 -39.7206
19.054347 52.126 -41.2350
19.192423 52.359 -42.5980
19.331499 52.597 -43.7942
19.471583 52.843 -44.8733
19.612682 53.101 -45.8803
19.754804 53.369 -46.8058
19.897956 53.648 -47.6942
20.042144 53.937 -48.5415
20.187378 54.237 -49.3610
20.333664 54.549 -50.1444
20.481010 54.874 -50.9189
20.629424 55.217 -51.7116
20.778913 55.578 -52.5216
20.929486 55.956 -53.4718
21.081150 56.350 -54.5193
21.233912 56.746 -55.7829
21.387782 57.141 -57.2650
21.542767 57.516 -58.9292
21.698874 57.859 -60.8330
21.856113 58.160 -62.8200
22.014492 58.404 -64.8537
22.174018 58.592 -66.8280
22.334700 58.721 -68.5059
22.496546 58.802 -69.8965
22.659566 58.859 -70.6710
22.823766 58.916 -70.8975
22.989157 59.028 -70.4832
23.155745 59.219 -69.5350
23.323542 59.532 -68.4771
23.492554 59.965 -67.4160
23.662790 60.489 -66.9810
23.834261 61.073 -67.0865
24.006973 61.651 -67.9948
24.180938 62.196 -69.4772
24.356163 62.665 -71.3630
24.532658 63.053 -73.4618
24.710431 63.355 -75.3725
24.889493 63.598 -76.9964
25.069853 63.817 -77.9297
25.251519 64.075 -78.3116
25.434502 64.432 -77.9927
25.618811 64.933 -77.6784
25.804456 65.597 -77.4839
25.991445 66.373 -78.3322
26.179790 67.216 -80.1077
26.369500 68.038 -83.2087
26.560584 68.797 -87.2559
26.753053 69.441 -92.2485
26.946917 69.948 -97.7167
27.142185 70.302 -103.6942
27.338869 70.494 -109.5424
27.536977 70.525 -115.3883
27.736522 70.407 -120.5184
27.937512 70.167 -124.9496
28.139959 69.849 -128.1195
28.343872 69.549 -130.0445
28.549264 69.345 -130.5538
28.756143 69.352 -130.3859
28.964522 69.580 -130.1861
29.174411 70.002 -130.7521
29.385821 70.495 -132.6347
29.598763 70.975 -135.7007
29.813248 71.350 -139.8499
30.029287 71.581 -144.4748
30.246891 71.647 -149.4466
30.466073 71.550 -154.0670
30.686842 71.318 -158.1064
30.909212 70.988 -161.2249
31.133193 70.642 -163.1531
31.358797 70.353 -164.0912
31.586035 70.182 -164.2034
31.814921 70.148 -164.2702
32.045465 70.204 -164.5882
32.277680 70.293 -165.3685
32.511577 70.345 -166.4228
32.747169 70.348 -167.2715
32.984469 70.334 -167.6147
33.223488 70.382 -167.1069
33.464239 70.554 -165.9768
33.706735 70.927 -164.9490
33.950987 71.479 -164.6736
34.197010 72.101 -165.8353
34.444816 72.689 -168.2982
34.694417 73.167 -171.7516
34.945827 73.492 -175.8018
35.199059 73.665 -179.7620
35.454126 73.724 176.7558
35.711041 73.735 174.0105
35.969818 73.781 172.1108
36.230470 73.943 170.6136
36.493011 74.232 168.8723
36.757455 74.604 166.4035
37.023814 74.984 162.9316
37.292104 75.286 158.4866
37.562338 75.454 153.5032
37.834530 75.471 148.4450
38.108695 75.351 143.7275
38.384846 75.140 139.7482
38.662999 74.916 136.7709
38.943167 74.771 134.6268
39.225365 74.760 132.7815
39.509608 74.880 130.6437
39.795911 75.077 127.8003
40.084289 75.279 124.1464
40.374756 75.433 119.8766
40.667328 75.521 115.3646
40.962020 75.571 110.9216
41.258848 75.634 106.6182
41.557827 75.760 102.2528
41.858972 75.974 97.4139
42.162299 76.256 91.6429
42.467824 76.552 84.6127
42.775564 76.797 76.2122
43.085533 76.930 66.5181
43.397749 76.914 55.7189
43.712227 76.726 44.0506
44.028983 76.361 31.7346
44.348036 75.825 18.9573
44.669400 75.136 5.8767
44.993093 74.322 -7.3656
45.319131 73.420 -20.6300
45.647532 72.477 -33.7524
45.978313 71.548 -46.5151
46.311491 70.690 -58.6285
46.647083 69.965 -69.7495
46.985107 69.434 -79.5670
47.325581 69.154 -87.9446
47.668521 69.152 -95.0344
48.013947 69.406 -101.2274
48.361876 69.841 -106.9088
48.712326 70.368 -112.2034
49.065315 70.935 -116.9258
49.420863 71.547 -120.7650
49.778987 72.266 -123.6056
50.139706 73.153 -125.7841
50.503039 74.216 -127.9926
50.869005 75.401 -130.8446
51.237623 76.641 -134.5411
51.608912 77.901 -138.9669
51.982891 79.187 -144.0354
52.359580 80.508 -149.9347
52.739000 81.835 -157.0748
53.121168 83.102 -165.8082
53.506106 84.220 -176.1998
53.893833 85.111 171.9658
54.284370 85.717 159.0781
54.677737 86.001 145.6443
55.073955 85.946 132.2377
55.473043 85.556 119.4785
55.875024 84.863 108.0025
56.279917 83.931 98.3708
56.687745 82.866 90.9780
57.098527 81.798 85.7211
57.512287 80.821 81.9454
57.929045 79.951 78.9465
58.348822 79.148 76.5106
58.771642 78.394 74.8831
59.197525 77.730 74.2777
59.626495 77.223 74.4174
60.058573 76.898 74.6887
60.493782 76.726 74.6231
60.932145 76.669 74.1004
61.373685 76.707 73.0346
61.818424 76.814 71.1696
62.266386 76.933 68.2877
62.717593 76.997 64.4680
63.172071 76.964 60.0693
63.629842 76.829 55.5206
64.090930 76.615 51.0836
64.555359 76.357 46.8503
65.023154 76.088 42.7795
65.494339 75.835 38.7500
65.968938 75.619 34.5075
66.446976 75.441 29.6954
66.928478 75.268 23.9758
67.413469 75.047 17.2349
67.901975 74.735 9.6091
68.394021 74.324 1.3458
68.889632 73.842 -7.5079
69.388835 73.338 -17.1829
69.891655 72.853 -28.1726
70.398118 72.419 -41.0703
70.908252 72.066 -56.4805
71.422083 71.820 -74.9157
71.939636 71.671 -96.7074
72.460941 71.546 -121.4990
72.986023 71.323 -148.5919
73.514909 70.856 -176.9253
74.047629 70.040 153.7638
74.584208 68.885 122.1973
75.124676 67.739 83.8109
75.669061 67.545 30.4015
76.217390 68.996 -23.0150
76.769692 71.331 -58.2529
77.325997 73.668 -82.7657
77.886333 75.711 -102.2150
78.450730 77.457 -118.7861
79.019216 78.965 -133.5676
79.591822 80.264 -147.4412
80.168577 81.334 -161.0101
80.749512 82.142 -174.3982
81.334656 82.691 172.6451
81.924040 83.010 160.3010
82.517696 83.119 148.4286
83.115653 82.985 136.8314
83.717943 82.537 125.7462
84.324598 81.716 116.1970
84.935649 80.559 109.8944
85.551128 79.281 108.8213
86.171066 78.322 113.5889
86.795497 78.134 121.2977
87.424453 78.761 127.8307
88.057967 79.918 131.4777
88.696071 81.312 131.9088
89.338800 82.725 129.0981
89.986185 84.008 123.5693
90.638262 85.101 116.2527
91.295065 86.020 107.8636
91.956626 86.791 98.4696
92.622982 87.388 87.6913
93.294166 87.722 75.3586
93.970214 87.693 61.9054
94.651161 87.238 48.2592
95.337042 86.348 35.5508
96.027894 85.070 24.8628
96.723752 83.498 17.0386
97.424652 81.758 12.5859
98.130631 80.008 11.7085
98.841726 78.445 14.2234
99.557974 77.279 19.0906
100.279412 76.630 24.3433
101.006078 76.433 28.3269
101.738010 76.524 30.3217
102.475245 76.712 29.8044
103.217823 76.788 26.7122
103.965782 76.588 22.3319
104.719161 76.111 18.8425
105.477999 75.549 17.7484
106.242336 75.167 18.3645
107.012212 75.084 18.4998
107.787666 75.208 16.5468
108.568740 75.347 11.9109
109.355474 75.307 4.8876
110.147909 74.967 -3.4159
110.946086 74.339 -11.7555
111.750047 73.545 -19.9449
112.559834 72.704 -29.3619
113.375489 71.841 -41.8049
114.197055 70.936 -58.4912
115.024574 70.059 -80.2893
115.858089 69.384 -106.9215
116.697645 69.118 -135.0175
117.543284 69.343 -159.5475
118.395051 69.925 -178.5618
119.252990 70.621 167.1926
120.117147 71.318 157.2650
120.987565 72.139 151.8966
121.864291 73.268 149.7241
122.747370 74.644 147.4204
123.636848 76.018 143.0151
124.532771 77.215 137.0317
125.435187 78.193 130.4786
126.344142 78.956 123.5748
127.259684 79.480 116.3783
128.181860 79.767 109.5509
129.110718 79.871 103.6639
130.046308 79.857 98.8835
130.988677 79.805 95.4817
131.937875 79.815 93.3851
132.893951 79.956 91.9259
133.856956 80.213 90.1190
134.826938 80.472 87.1241
135.803950 80.605 83.4279
136.788041 80.611 80.7184
137.779264 80.660 80.1737
138.777669 80.930 80.7028
139.783309 81.400 80.0056
140.796237 81.899 77.4248
141.816504 82.303 73.7036
142.844165 82.563 69.4341
143.879273 82.639 64.7574
144.921881 82.489 60.3312
145.972045 82.178 58.0333
147.029819 81.987 59.6183
148.095257 82.281 63.8610
149.168417 83.136 66.9979
150.249353 84.307 66.7279
151.338121 85.506 62.8685
152.434780 86.549 56.0934
153.539385 87.345 47.2601
154.651995 87.861 37.2291
155.772667 88.105 26.6439
156.901460 88.089 15.8260
158.038432 87.817 4.9739
159.183644 87.293 -5.4669
160.337154 86.568 -14.8439
161.499023 85.728 -23.6927
162.669312 84.740 -33.4075
163.848081 83.438 -43.9115
165.035392 81.657 -53.4760
166.231306 79.329 -59.0377
167.435887 76.575 -56.8569
168.649196 73.772 -46.0863
169.871298 71.540 -29.3347
171.102255 70.664 -6.2344
172.342133 71.420 12.7405
173.590995 73.072 22.7869
174.848907 74.888 25.8680
176.115934 76.335 20.3021
177.392143 77.140 9.8356
178.677599 77.305 -2.3391
179.972371 76.830 -16.2473
181.276525 75.653 -32.2078
182.590129 73.922 -51.8367
183.913252 72.805 -95.8411
185.245964 74.098 125.6641
186.588332 76.567 95.9321
187.940428 78.618 75.4124
189.302322 79.990 57.9963
190.674085 80.761 42.4121
192.055788 81.011 28.2114
193.447503 80.829 15.6987
194.849303 80.312 4.8408
196.261262 79.525 -4.5732
197.683452 78.532 -12.2888
199.115948 77.438 -18.3267
200.558824 76.409 -23.6257
202.012156 75.590 -31.6191
203.476019 74.978 -47.4214
204.950490 74.537 -76.6536
206.435646 74.469 -126.0908
207.931564 75.253 -179.0447
209.438322 77.223 151.6853
210.955998 79.779 135.4646
212.484672 81.978 118.0491
214.024424 83.518 100.0981
215.575333 84.536 84.1829
217.137481 85.188 70.0598
218.710948 85.527 56.9270
220.295818 85.513 44.1587
221.892172 85.055 32.2034
223.500094 84.204 24.4194
225.119668 83.420 24.4397
226.750978 83.185 25.8303
228.394109 83.160 20.8345
230.049147 82.758 13.4624
231.716178 81.858 9.3047
233.395289 80.761 11.3232
235.086567 80.147 21.3904
236.790102 80.891 37.2493
238.505980 82.991 49.9753
240.234293 85.518 53.6299
241.975130 87.638 46.0984
243.728581 88.921 31.3269
245.494739 89.350 16.2056
247.273695 89.319 6.1738
249.065542 89.357 0.1833
250.870374 89.596 -6.8208
252.688284 89.828 -15.8376
254.519367 89.914 -25.7654
256.363720 89.782 -36.9033
258.221437 89.281 -49.6846
260.092616 88.217 -62.6477
261.977354 86.513 -71.2542
263.875750 84.490 -69.7246
265.787903 82.987 -59.6821
267.713911 82.642 -51.7104
269.653877 82.984 -51.4448
271.607900 83.164 -57.8950
273.576083 82.784 -65.5720
275.558528 82.132 -66.0935
277.555338 81.980 -60.7354
279.566619 82.314 -64.4653
281.592474 82.288 -77.5808
283.633009 81.283 -94.4597
285.688331 79.355 -101.5000
287.758546 78.101 -41.9067
289.843763 78.990 -22.7766
291.944090 80.282 -33.3364
294.059638 80.836 -45.6648
296.190515 80.691 -54.2971
298.336833 80.533 -53.3374
300.498705 81.329 -43.1260
302.676243 82.764 -42.5479
304.869559 83.653 -55.1619
307.078770 83.536 -69.0461
309.303989 83.051 -70.2451
311.545334 83.499 -60.1472
313.802919 84.769 -61.8208
316.076865 85.830 -72.8984
318.367288 86.367 -85.5422
320.674309 86.482 -97.4775
322.998047 86.306 -108.3198
325.338624 85.953 -117.9055
327.696162 85.599 -125.2205
330.070783 85.571 -129.6797
332.462612 85.905 -137.1687
334.871773 86.035 -151.4146
337.298392 85.479 -167.4253
339.742595 84.327 -177.6560
342.204510 83.309 -178.7397
344.684265 83.073 179.3486
347.181989 83.244 170.6367
349.697813 83.364 160.4072
352.231868 83.605 152.7605
354.784285 84.168 143.9480
357.355198 84.705 129.5149
359.944741 84.748 111.2554
362.553049 84.119 93.9583
365.180258 83.115 83.0879
367.826505 82.479 78.6782
370.491927 82.670 74.0591
373.176665 83.177 62.3674
375.880856 83.297 46.0942
378.604644 82.835 30.1177
381.348169 81.817 15.8254
384.111575 80.354 7.0254
386.895006 79.019 9.0449
389.698607 78.526 12.4636
392.522524 78.574 8.6011
395.366904 78.737 5.1606
398.231895 79.152 2.7349
401.117648 80.024 1.1748
404.024312 81.270 -3.2231
406.952038 82.306 -15.9561
409.900981 82.670 -33.1816
412.871292 82.309 -49.8691
415.863128 81.511 -61.7285
418.876643 80.752 -70.5325
421.911996 80.096 -82.1226
424.969344 79.487 -91.7434
428.048847 79.187 -102.1965
431.150666 78.763 -122.4917
434.274961 77.428 -146.8662
437.421897 75.076 -160.0264
440.591636 72.679 -158.1106
443.784345 71.454 -174.9282
447.000189 71.649 -157.5781
450.239337 72.877 -123.6414
453.501956 73.823 -161.1028
456.788219 74.269 164.6765
460.098294 75.000 138.8049
463.432356 76.016 113.7715
466.790578 77.084 92.1084
470.173135 78.348 74.6379
473.580203 79.277 51.8237
477.011961 79.152 26.1726
480.468586 78.263 14.0654
483.950259 78.155 23.3740
487.457163 79.048 15.3018
490.989478 79.869 -1.3396
494.547390 81.053 -10.2671
498.131084 82.755 -23.2007
501.740748 83.872 -51.8047
505.376568 83.808 -88.1692
509.038735 82.747 -127.8870
512.727439 81.202 -175.7610
516.442874 79.620 120.7766
520.185232 78.175 56.1902
523.954708 76.894 10.8042
527.751500 75.980 -20.5635
531.575805 75.363 -50.3140
535.427822 75.003 -83.2500
539.307753 75.601 -136.9011
543.215800 76.917 27.6809
547.152165 77.815 -27.8572
551.117055 77.712 -86.8396
555.110677 77.378 -171.5620
559.133237 78.295 99.4673
563.184947 79.943 47.7114
567.266018 80.898 4.9307
571.376661 80.681 -33.7109
575.517092 79.284 -66.0381
579.687526 77.114 -88.5942
583.888181 75.131 -109.3296
588.119275 74.021 -142.6519
592.381030 73.572 158.3887
596.673667 73.395 69.6655
600.997410 73.553 4.7358
605.352485 73.631 -21.4390
609.739119 73.274 3.0713
614.157540 72.999 -17.5610
618.607979 74.058 -36.4351
623.090667 75.978 -67.5811
627.605839 77.644 -116.7295
632.153730 79.255 158.5771
636.734576 80.795 -25.5708
641.348617 81.730 -94.7471
645.996094 81.812 -152.8018
650.677248 81.508 161.6895
655.392323 81.571 123.8784
660.141566 81.435 85.1284
664.925224 80.449 49.5000
669.743546 78.912 21.3652
674.596784 78.054 21.7944
679.485191 79.186 24.4121
684.409020 80.658 -11.9136
689.368530 80.734 -68.9434
694.363979 79.328 -171.2793
699.395626 78.061 88.3447
704.463736 78.389 40.6445
709.568570 78.798 -5.6885
714.710396 78.299 -54.7222
719.889483 77.643 -103.9800
725.106099 78.261 -8.2397
730.360516 79.496 -78.0508
735.653010 79.954 -154.0688
740.983855 79.466 149.3804
746.353329 79.438 133.5957
751.761713 81.081 125.5449
757.209288 82.372 92.8096
762.696339 82.181 59.8555
768.223151 81.162 42.8105
773.790013 80.411 28.4531
779.397214 79.656 9.8560
785.045047 78.946 17.1934
790.733808 78.518 19.0278
796.463791 78.081 29.9678
802.235296 77.710 24.6602
808.048623 77.451 20.7954
813.904077 78.429 24.4053
819.801961 80.132 8.8516
825.742584 81.431 -18.5596
831.726255 82.062 -54.6855
837.753287 82.592 -99.9019
843.823992 83.332 -157.3369
849.938689 83.785 145.9229
856.097695 83.590 103.3828
862.301332 83.327 76.7520
868.549922 83.420 55.7876
874.843793 83.440 37.1777
881.183272 83.389 22.8608
887.568689 83.303 8.3037
894.000378 83.023 -7.1089
900.478673 82.387 -22.5977
907.003913 81.644 -31.3262
913.576437 81.437 -42.6304
920.196588 81.854 -62.7988
926.864712 82.636 -96.8711
933.581156 83.050 -152.3354
940.346270 82.956 146.9082
947.160407 83.150 104.0732
954.023921 84.220 76.4897
960.937172 85.568 52.1860
967.900519 86.413 26.6709
974.914325 86.443 1.0122
981.978956 85.639 -24.1240
989.094780 83.800 -45.0952
996.262169 81.318 -30.6377
1003.481495 81.045 12.3975
1010.753136 83.410 13.9775
1018.077470 85.402 -3.1665
1025.454879 85.686 -28.8208
1032.885748 84.447 -45.1274
1040.370463 83.151 -45.6118
1047.909417 82.930 -49.8120
1055.503000 83.115 -61.4917
1063.151610 83.256 -76.5679
1070.855645 82.774 -101.5264
1078.615506 81.118 -121.6973
1086.431599 79.379 -53.5854
1094.304330 79.122 -44.6646
1102.234110 80.187 -39.8643
1110.221353 80.942 -60.7529
1118.266475 80.275 -87.3955
1126.369895 78.360 -99.2017
1134.532035 76.616 -98.1387
1142.753322 76.417 -90.1543
1151.034184 77.816 -34.6694
1159.375052 79.819 -49.1909
1167.776361 81.502 -77.2725
1176.238550 82.508 -114.8975
1184.762060 82.631 -166.3926
1193.347334 81.765 110.2827
1201.994821 80.725 8.0669
1210.704971 79.981 -47.8867
1219.478238 78.626 -64.3735
1228.315080 76.691 -37.1738
1237.215957 75.838 -28.7705
1246.181334 76.771 -9.2515
1255.211678 77.354 -34.8384
1264.307459 76.701 -63.7432
1273.469152 75.101 -83.6060
1282.697235 74.188 -48.0786
1291.992188 75.799 0.6680
1301.354495 78.453 8.7041
1310.784647 80.252 -14.6426
1320.283132 80.759 -39.1758
1329.850448 80.681 -56.8545
1339.487093 80.826 -68.6875
1349.193569 81.870 -71.6201
1358.970381 82.892 -87.8604
1368.818041 82.818 -104.9248
1378.737061 82.451 -118.0542
1388.727958 81.754 -147.0776
1398.791253 80.458 174.3745
1408.927471 78.917 101.6519
1419.137140 77.890 -15.6431
1429.420793 77.866 -61.7378
1439.778965 77.185 -94.4551
1450.212197 75.753 -103.3301
1460.721033 75.312 -101.2930
1471.306019 76.059 -115.0146
1481.967709 77.226 -141.0962
1492.706658 77.537 171.6978
1503.523426 77.014 107.8228
1514.418576 77.293 55.5356
1525.392678 78.887 23.6958
1536.446302 80.581 -7.0742
1547.580025 81.725 -36.1655
1558.794428 82.057 -61.9541
1570.090095 81.904 -78.4351
1581.467615 82.019 -89.1484
1592.927581 82.273 -103.8169
1604.470591 81.749 -120.9897
1616.097246 80.706 -129.5771
1627.808153 80.347 -136.0684
1639.603922 80.497 -149.8809
1651.485168 80.145 -166.2778
1663.452510 79.136 178.4849
1675.506573 77.553 161.8418
1687.647984 76.111 151.3862
1699.877377 76.232 168.1797
1712.195390 77.032 147.6309
1724.602663 76.749 95.2539
1737.099845 76.599 -7.1514
1749.687587 78.863 -80.6230
1762.366544 81.013 -136.1016
1775.137379 81.436 158.9985
1788.000756 80.896 78.2871
1800.957346 80.881 -8.3223
1814.007826 80.936 -71.7910
1827.152874 79.790 -117.1660
1840.393177 78.346 -138.6641
1853.729425 78.434 -77.3413
1867.162312 79.670 -93.7305
1880.692540 81.090 -117.5254
1894.320813 82.256 -142.9570
1908.047843 82.507 -170.2266
1921.874344 82.231 163.4688
1935.801038 81.328 131.6309
1949.828650 79.236 109.2422
1963.957912 77.290 155.0059
1978.189561 77.543 148.0361
1992.524338 78.774 115.2578
2006.962991 79.406 66.5391
2021.506272 79.581 10.9170
2036.154940 80.463 -37.4023
