* Measurement data measured by REW V5.31.1
* Source: Scarlett 2i4 USB, MICROPHONE, R, volume: no control
* Format: 512k Log Swept Sine, 1 sweep at -18.0 dBFS with no timing reference
* Dated: May 7, 2024 4:17:21 PM
* REW Settings:
*  C-weighting compensation: Off
*  Target level: 75.0 dB
* Note: ; 
* Measurement: front-l12-r12-p2-c
* Smoothing: 1/48 octave
* Frequency Step: 96 ppo
* Start Frequency: 10.093689 Hz
*
* Freq(Hz) SPL(dB) Phase(degrees)
10.093689 46.318 1.5073
10.166832 46.276 0.8921
10.240505 46.225 0.3718
10.314712 46.171 -0.0236
10.389457 46.117 -0.2605
10.464743 46.061 -0.3110
10.540575 45.999 -0.1993
10.616956 45.938 0.0931
10.693891 45.890 0.5960
10.771383 45.863 1.3375
10.849437 45.855 2.3338
10.928057 45.865 3.5690
11.007246 45.909 5.0079
11.087009 46.006 6.5984
11.167350 46.164 8.3363
11.248273 46.378 10.2363
11.329783 46.646 12.1387
11.411883 46.971 13.8779
11.494578 47.359 15.3947
11.577873 47.812 16.8188
11.661771 48.313 17.9765
11.746277 48.840 18.7109
11.831395 49.386 18.9979
11.917130 49.958 19.0437
12.003487 50.543 18.7655
12.090469 51.122 18.0801
12.178081 51.686 16.9972
12.266329 52.242 15.6723
12.355216 52.783 14.0995
12.444747 53.300 12.2526
12.534926 53.790 10.1257
12.625760 54.255 7.7954
12.717251 54.692 5.3151
12.809406 55.098 2.6960
12.902228 55.472 -0.1408
12.995723 55.813 -3.1186
13.089895 56.121 -6.1414
13.184750 56.394 -9.2214
13.280292 56.631 -12.4828
13.376526 56.831 -15.7888
13.473458 56.995 -19.0164
13.571093 57.120 -22.3247
13.669434 57.207 -25.7091
13.768489 57.254 -29.0000
13.868261 57.262 -32.1602
13.968756 57.229 -35.3708
14.069979 57.157 -38.4878
14.171936 57.046 -41.3527
14.274632 56.893 -44.1085
14.378072 56.705 -46.7184
14.482261 56.484 -49.0274
14.587206 56.230 -51.0151
14.692910 55.949 -52.7167
14.799381 55.656 -54.0706
14.906624 55.355 -54.9640
15.014643 55.052 -55.3913
15.123446 54.774 -55.4397
15.233036 54.536 -55.0778
15.343421 54.339 -54.2299
15.454606 54.203 -53.1365
15.566596 54.144 -51.9225
15.679398 54.157 -50.5167
15.793018 54.233 -49.1653
15.907460 54.370 -48.0048
16.022732 54.563 -46.9801
16.138840 54.791 -46.1779
16.255788 55.042 -45.6326
16.373585 55.317 -45.3069
16.492234 55.603 -45.1845
16.611744 55.897 -45.2461
16.732119 56.198 -45.4834
16.853367 56.504 -45.8909
16.975494 56.814 -46.4397
17.098505 57.126 -47.1446
17.222408 57.437 -48.0291
17.347209 57.746 -49.0661
17.472914 58.046 -50.2526
17.599530 58.330 -51.6112
17.727063 58.597 -53.1137
17.855521 58.837 -54.6796
17.984909 59.048 -56.3676
18.115235 59.225 -58.0772
18.246506 59.365 -59.6929
18.378727 59.467 -61.2957
18.511907 59.537 -62.6857
18.646052 59.573 -63.8357
18.781169 59.588 -64.7353
18.917265 59.597 -65.2318
19.054347 59.604 -65.3474
19.192423 59.637 -65.1040
19.331499 59.710 -64.4531
19.471583 59.833 -63.5192
19.612682 60.025 -62.4516
19.754804 60.284 -61.2556
19.897956 60.603 -60.1878
20.042144 60.980 -59.2435
20.187378 61.398 -58.5265
20.333664 61.844 -58.0764
20.481010 62.311 -57.8672
20.629424 62.787 -57.9142
20.778913 63.270 -58.1781
20.929486 63.754 -58.6750
21.081150 64.238 -59.3602
21.233912 64.718 -60.2734
21.387782 65.189 -61.3860
21.542767 65.647 -62.6972
21.698874 66.083 -64.2205
21.856113 66.494 -65.8853
22.014492 66.869 -67.6896
22.174018 67.208 -69.5612
22.334700 67.506 -71.4075
22.496546 67.766 -73.2164
22.659566 67.994 -74.8212
22.823766 68.198 -76.2590
22.989157 68.397 -77.4056
23.155745 68.600 -78.3072
23.323542 68.830 -79.0059
23.492554 69.093 -79.5357
23.662790 69.394 -80.0970
23.834261 69.730 -80.6893
24.006973 70.085 -81.4956
24.180938 70.446 -82.4585
24.356163 70.791 -83.5818
24.532658 71.114 -84.7699
24.710431 71.409 -85.8512
24.889493 71.689 -86.7445
25.069853 71.972 -87.2375
25.251519 72.296 -87.3925
25.434502 72.696 -87.1232
25.618811 73.205 -86.8411
25.804456 73.838 -86.6008
25.991445 74.573 -87.0355
26.179790 75.385 -88.0918
26.369500 76.216 -90.1614
26.560584 77.036 -93.0045
26.753053 77.801 -96.6891
26.946917 78.493 -100.9163
27.142185 79.095 -105.6694
27.338869 79.605 -110.6155
27.536977 80.021 -115.7790
27.736522 80.351 -120.8569
27.937512 80.606 -125.8608
28.139959 80.800 -130.6541
28.343872 80.949 -135.1972
28.549264 81.068 -139.5057
28.756143 81.173 -143.5925
28.964522 81.270 -147.5406
29.174411 81.361 -151.4156
29.385821 81.439 -155.2935
29.598763 81.496 -159.2008
29.813248 81.517 -163.1526
30.029287 81.492 -167.0578
30.246891 81.414 -170.9013
30.466073 81.281 -174.5106
30.686842 81.098 -177.8165
30.909212 80.876 179.2722
31.133193 80.631 176.8501
31.358797 80.380 174.9227
31.586035 80.139 173.5267
31.814921 79.925 172.6293
32.045465 79.755 172.2311
32.277680 79.647 172.3211
32.511577 79.630 172.8368
32.747169 79.735 173.5769
32.984469 79.979 174.2914
33.223488 80.362 174.5984
33.464239 80.843 174.0670
33.706735 81.371 172.5858
33.950987 81.888 170.1081
34.197010 82.338 166.7756
34.444816 82.689 162.9142
34.694417 82.930 158.7681
34.945827 83.060 154.6293
35.199059 83.106 150.8560
35.454126 83.107 147.5662
35.711041 83.106 144.7975
35.969818 83.151 142.4739
36.230470 83.268 140.2498
36.493011 83.449 137.7945
36.757455 83.664 134.9066
37.023814 83.871 131.4844
37.292104 84.030 127.5808
37.562338 84.116 123.4210
37.834530 84.124 119.2139
38.108695 84.062 115.1313
38.384846 83.948 111.3113
38.662999 83.806 107.8227
38.943167 83.657 104.6301
39.225365 83.513 101.6533
39.509608 83.381 98.8256
39.795911 83.261 96.1029
40.084289 83.158 93.4639
40.374756 83.082 90.8852
40.667328 83.047 88.2796
40.962020 83.062 85.4563
41.258848 83.119 82.1667
41.557827 83.194 78.2059
41.858972 83.242 73.4295
42.162299 83.217 67.8310
42.467824 83.069 61.5139
42.775564 82.757 54.6785
43.085533 82.247 47.6086
43.397749 81.511 40.6720
43.712227 80.533 34.3389
44.028983 79.309 29.2001
44.348036 77.864 26.0063
44.669400 76.278 25.6295
44.993093 74.722 28.7351
45.319131 73.443 34.9958
45.647532 72.632 42.5898
45.978313 72.285 49.3757
46.311491 72.241 54.4394
46.647083 72.347 57.9203
46.985107 72.516 60.1225
47.325581 72.697 61.1489
47.668521 72.835 61.0162
48.013947 72.869 59.8531
48.361876 72.745 57.9702
48.712326 72.419 55.8244
49.065315 71.872 53.9880
49.420863 71.103 53.1827
49.778987 70.156 54.3676
50.139706 69.167 58.6996
50.503039 68.406 66.8370
50.869005 68.190 77.3074
51.237623 68.581 86.6028
51.608912 69.318 92.6183
51.982891 70.120 95.8201
52.359580 70.873 97.4645
52.739000 71.587 98.2997
53.121168 72.291 98.2966
53.506106 72.953 97.0592
53.893833 73.490 94.4418
54.284370 73.807 90.8218
54.677737 73.849 87.0522
55.073955 73.631 84.2527
55.473043 73.263 83.4695
55.875024 72.930 85.0554
56.279917 72.795 88.1478
56.687745 72.869 91.2037
57.098527 73.034 93.6078
57.512287 73.213 96.1693
57.929045 73.491 100.0434
58.348822 74.057 105.3174
58.771642 75.011 110.4366
59.197525 76.255 113.5740
59.626495 77.615 114.1500
60.058573 78.971 112.4369
60.493782 80.249 108.7201
60.932145 81.391 103.1910
61.373685 82.336 96.1338
61.818424 83.038 88.0236
62.266386 83.481 79.5185
62.717593 83.691 71.2141
63.172071 83.729 63.5891
63.629842 83.674 56.8136
64.090930 83.593 50.6942
64.555359 83.512 44.8787
65.023154 83.430 39.1194
65.494339 83.338 33.3524
65.968938 83.243 27.5431
66.446976 83.152 21.5341
66.928478 83.058 15.0626
67.413469 82.931 7.9247
67.901975 82.734 0.0778
68.394021 82.442 -8.3914
68.889632 82.049 -17.4460
69.388835 81.565 -27.1350
69.891655 81.002 -37.7231
70.398118 80.369 -49.6239
70.908252 79.667 -63.3984
71.422083 78.892 -79.5332
71.939636 78.059 -98.4388
72.460941 77.236 -119.9387
72.986023 76.557 -143.1447
73.514909 76.195 -165.9706
74.047629 76.274 173.6069
74.584208 76.780 156.4054
75.124676 77.569 141.8124
75.669061 78.462 128.8598
76.217390 79.322 116.8651
76.769692 80.079 105.5688
77.325997 80.712 94.8658
77.886333 81.226 84.6519
78.450730 81.618 74.7139
79.019216 81.866 64.8850
79.591822 81.936 55.2854
80.168577 81.821 46.3704
80.749512 81.577 38.7325
81.334656 81.323 32.6179
81.924040 81.178 27.3541
82.517696 81.153 21.7815
83.115653 81.157 15.1904
83.717943 81.079 7.6986
84.324598 80.867 -0.1843
84.935649 80.514 -8.0655
85.551128 80.036 -15.7457
86.171066 79.455 -23.0919
86.795497 78.810 -29.9329
87.424453 78.188 -36.2919
88.057967 77.699 -43.0958
88.696071 77.357 -52.3981
89.338800 76.993 -66.1458
89.986185 76.359 -85.2855
90.638262 75.346 -110.9449
91.295065 74.227 -147.3466
91.956626 73.840 158.5325
92.622982 74.791 102.7556
93.294166 76.416 62.5471
93.970214 77.840 30.4661
94.651161 78.679 1.3184
95.337042 78.833 -26.3223
96.027894 78.320 -52.5039
96.723752 77.224 -77.0623
97.424652 75.669 -100.3436
98.130631 73.776 -123.6675
98.841726 71.639 -149.4877
99.557974 69.424 177.7352
100.279412 67.686 128.7142
101.006078 67.362 64.5184
101.738010 68.493 15.9630
102.475245 70.226 -16.8296
103.217823 72.134 -41.6143
103.965782 74.126 -62.2810
104.719161 76.062 -81.6080
105.477999 77.765 -100.8881
106.242336 79.150 -119.9290
107.012212 80.225 -138.2529
107.787666 81.004 -155.8433
108.568740 81.468 -172.7494
109.355474 81.595 171.4958
110.147909 81.430 157.7676
110.946086 81.111 146.7969
111.750047 80.814 138.3777
112.559834 80.628 131.0645
113.375489 80.449 123.4193
114.197055 80.091 115.7213
115.024574 79.480 109.6300
115.858089 78.721 106.6316
116.697645 78.028 106.9510
117.543284 77.610 109.5192
118.395051 77.577 112.9127
119.252990 77.949 116.3835
120.117147 78.688 118.8464
120.987565 79.617 118.6053
121.864291 80.507 115.6320
122.747370 81.236 111.1133
123.636848 81.764 105.9133
124.532771 82.104 100.9164
125.435187 82.361 97.2036
126.344142 82.688 94.5830
127.259684 83.109 91.2455
128.181860 83.481 86.1306
129.110718 83.670 80.0508
130.046308 83.669 74.3352
130.988677 83.556 69.5907
131.937875 83.441 66.1056
132.893951 83.475 64.1053
133.856956 83.775 62.2340
134.826938 84.226 57.9774
135.803950 84.530 50.4561
136.788041 84.435 41.2690
137.779264 83.900 33.2806
138.777669 83.116 28.5687
139.783309 82.391 26.9976
140.796237 81.949 26.3663
141.816504 81.739 23.9058
142.844165 81.502 19.0031
143.879273 81.040 13.3387
144.921881 80.357 8.9957
145.972045 79.620 6.6891
147.029819 78.990 5.1793
148.095257 78.517 3.6162
149.168417 78.216 1.6031
150.249353 78.000 -3.1056
151.338121 77.591 -11.5143
152.434780 76.784 -21.8085
153.539385 75.602 -33.0155
154.651995 74.235 -46.3849
155.772667 73.115 -64.9009
156.901460 72.945 -93.2695
158.038432 73.971 -129.6394
159.183644 75.660 -162.4255
160.337154 77.483 173.0908
161.499023 79.167 154.3533
162.669312 80.507 138.0420
163.848081 81.382 123.4219
165.035392 81.848 111.4844
166.231306 82.037 102.3064
167.435887 82.035 95.3030
168.649196 81.931 90.9487
169.871298 81.953 90.3770
171.102255 82.383 92.5327
172.342133 83.255 93.9126
173.590995 84.406 93.3374
174.848907 85.723 91.2974
176.115934 87.113 87.0991
177.392143 88.418 79.7988
178.677599 89.487 69.7302
179.972371 90.211 57.5251
181.276525 90.505 43.8831
182.590129 90.321 30.0833
183.913252 89.693 17.5215
185.245964 88.706 6.7734
186.588332 87.410 -2.2737
187.940428 85.804 -9.1431
189.302322 83.885 -13.0154
190.674085 81.729 -11.2339
192.055788 79.961 5.3423
193.447503 80.035 34.2502
194.849303 81.885 48.8391
196.261262 84.081 50.4275
197.683452 85.953 45.0269
199.115948 87.332 35.5886
200.558824 88.225 24.4690
202.012156 88.719 13.0864
203.476019 88.885 1.5107
204.950490 88.712 -10.5122
206.435646 88.159 -22.3743
207.931564 87.222 -33.0203
209.438322 85.948 -41.6504
210.955998 84.398 -48.2024
212.484672 82.581 -53.0088
214.024424 80.539 -53.4436
215.575333 78.991 -37.5220
217.137481 79.470 -7.6086
218.710948 81.330 -2.0459
220.295818 82.913 -11.8630
221.892172 83.696 -26.9985
223.500094 83.679 -43.5542
225.119668 82.969 -60.2778
226.750978 81.644 -77.4553
228.394109 79.720 -96.3315
230.049147 77.226 -120.1543
231.716178 74.546 -164.2537
233.395289 72.971 109.5396
235.086567 73.261 69.6802
236.790102 74.392 54.4880
238.505980 75.877 50.7781
240.234293 77.640 50.4084
241.975130 79.301 45.7244
243.728581 80.510 36.9207
245.494739 81.225 27.8240
247.273695 81.611 20.4507
249.065542 81.819 14.3721
250.870374 81.905 9.0662
252.688284 81.891 4.4558
254.519367 81.805 0.7500
256.363720 81.746 -1.3909
258.221437 81.921 -1.3962
260.092616 82.484 -1.0127
261.977354 83.240 -4.5281
263.875750 83.751 -13.2209
265.787903 83.708 -24.2310
267.713911 83.085 -33.4099
269.653877 82.180 -36.8923
271.607900 81.523 -35.3018
273.576083 81.308 -35.9939
275.558528 81.114 -41.5515
277.555338 80.534 -48.4517
279.566619 79.533 -52.2021
281.592474 78.488 -49.2405
283.633009 78.023 -41.9568
285.688331 78.373 -36.7141
287.758546 79.096 -37.9087
289.843763 79.538 -46.4211
291.944090 79.247 -59.2190
294.059638 78.038 -71.6621
296.190515 76.248 -72.2102
298.336833 75.534 -31.8706
300.498705 76.799 -15.6292
302.676243 78.224 -25.2485
304.869559 78.909 -38.5520
307.078770 78.879 -51.1497
309.303989 78.215 -63.8098
311.545334 76.888 -76.2385
313.802919 75.372 -76.5144
316.076865 75.597 -19.3599
318.367288 77.728 -9.1428
320.674309 79.768 -23.1379
322.998047 81.057 -41.3623
325.338624 81.491 -62.1421
327.696162 80.980 -83.9341
330.070783 79.526 -103.6079
332.462612 77.244 -119.4629
334.871773 74.306 -131.7124
337.298392 71.316 -145.5356
339.742595 70.674 123.3936
342.204510 73.385 34.2520
344.684265 76.612 10.8506
347.181989 79.202 -10.7710
349.697813 81.001 -33.9958
352.231868 82.013 -58.4580
354.784285 82.287 -82.8472
357.355198 81.926 -105.5483
359.944741 81.150 -124.9783
362.553049 80.298 -140.8960
365.180258 79.763 -154.1101
367.826505 79.803 -166.8352
370.491927 80.268 177.8792
373.176665 80.824 160.4507
375.880856 81.302 142.5234
378.604644 81.592 124.2114
381.348169 81.593 106.5774
384.111575 81.384 91.9553
386.895006 81.220 80.9067
389.698607 81.321 71.8975
392.522524 81.679 62.2114
395.366904 82.051 50.0728
398.231895 82.140 35.2927
401.117648 81.643 18.0571
404.024312 80.289 1.9490
406.952038 78.257 0.2490
409.900981 76.922 24.6714
412.871292 77.305 32.3853
415.863128 78.166 26.0576
418.876643 78.709 17.8445
421.911996 78.701 7.1599
424.969344 77.996 -1.7358
428.048847 77.070 1.3540
431.150666 76.710 7.3254
434.274961 76.731 5.3418
437.421897 76.968 6.1931
440.591636 78.047 15.4824
443.784345 79.725 16.7202
447.000189 80.940 4.0544
450.239337 81.207 -12.8440
453.501956 80.532 -28.1147
456.788219 79.288 -34.7786
460.098294 78.534 -26.8418
463.432356 78.722 -27.3611
466.790578 78.606 -41.9795
470.173135 77.470 -56.1685
473.580203 75.460 -64.0144
477.011961 73.241 -60.4980
480.468586 72.681 -19.2302
483.950259 74.431 3.0918
487.457163 76.246 -6.6279
490.989478 77.339 -19.4497
494.547390 78.046 -29.6108
498.131084 78.497 -41.9883
501.740748 78.867 -52.7029
505.376568 79.733 -61.0215
509.038735 80.894 -77.6802
512.727439 81.551 -104.0349
516.442874 81.342 -133.9639
520.185232 80.597 -160.6016
523.954708 80.272 178.9888
527.751500 80.854 157.8159
531.575805 81.712 133.6035
535.427822 82.478 110.8093
539.307753 83.028 88.9797
543.215800 83.323 69.9609
547.152165 83.529 53.8076
551.117055 83.601 37.5901
555.110677 83.505 23.6802
559.133237 83.473 11.9465
563.184947 83.469 -1.9724
567.266018 83.156 -18.6980
571.376661 82.251 -36.0764
575.517092 80.764 -49.4844
579.687526 79.219 -56.2756
583.888181 78.175 -67.2114
588.119275 77.176 -89.3289
592.381030 75.634 -118.9485
596.673667 74.163 -153.9006
600.997410 74.985 171.3271
605.352485 77.931 141.5996
609.739119 80.905 114.3792
614.157540 83.201 88.4597
618.607979 84.653 62.9426
623.090667 85.380 40.2129
627.605839 85.648 20.8950
632.153730 85.555 3.2915
636.734576 85.086 -12.3354
641.348617 84.446 -22.7969
645.996094 84.093 -29.8076
650.677248 83.945 -41.1689
655.392323 83.641 -53.4346
660.141566 83.349 -63.8252
664.925224 83.033 -79.1602
669.743546 82.085 -99.1729
674.596784 80.200 -115.2812
679.485191 77.919 -119.0547
684.409020 76.681 -118.9199
689.368530 76.791 -133.7109
694.363979 76.808 -162.5801
699.395626 76.033 162.9087
704.463736 74.780 129.3682
709.568570 73.871 100.0405
714.710396 73.879 72.0068
719.889483 75.068 79.8638
725.106099 77.427 115.9854
730.360516 79.904 92.9556
735.653010 81.950 67.5073
740.983855 83.344 41.4717
746.353329 83.956 14.7471
751.761713 83.777 -11.7524
757.209288 82.786 -37.3042
762.696339 80.908 -59.9570
768.223151 78.235 -69.0537
773.790013 75.597 -72.6348
779.397214 73.262 -90.8833
785.045047 70.956 -101.4360
790.733808 70.770 -95.5371
796.463791 73.779 117.8740
802.235296 77.572 97.6069
808.048623 80.409 70.5610
813.904077 81.725 37.9971
819.801961 81.828 12.0645
825.742584 81.914 -0.3169
831.726255 82.859 -11.7310
837.753287 83.797 -33.7178
843.823992 83.771 -62.5967
849.938689 82.375 -90.9155
856.097695 80.036 -106.6895
862.301332 78.788 -106.5103
868.549922 79.631 -127.8477
874.843793 80.324 -174.3027
881.183272 79.932 133.6050
887.568689 79.046 94.7456
894.000378 79.235 75.9863
900.478673 80.756 56.2275
907.003913 81.995 28.6221
913.576437 82.133 -1.1055
920.196588 81.199 -28.2979
926.864712 79.277 -49.3198
933.581156 77.067 -42.2720
940.346270 77.247 2.7197
947.160407 79.306 5.9565
954.023921 80.696 -18.3687
960.937172 81.022 -45.2480
967.900519 80.686 -71.2168
974.914325 80.252 -102.4390
981.978956 80.000 -153.8345
989.094780 80.185 104.9517
996.262169 80.888 32.9409
1003.481495 81.932 -7.1538
1010.753136 83.012 -39.3354
1018.077470 83.337 -74.7778
1025.454879 82.324 -111.0791
1032.885748 80.357 -144.9824
1040.370463 78.265 173.7583
1047.909417 76.409 105.1328
1055.503000 75.601 -8.6670
1063.151610 76.265 -110.9678
1070.855645 77.151 68.9678
1078.615506 77.185 7.1094
1086.431599 76.503 -35.3872
1094.304330 75.728 -61.9233
1102.234110 75.683 -69.1221
1110.221353 76.656 -85.9756
1118.266475 78.393 -105.4604
1126.369895 79.654 -142.7739
1134.532035 79.271 171.0820
1142.753322 77.478 132.0513
1151.034184 75.492 103.0215
1159.375052 74.385 72.9727
1167.776361 74.335 38.2739
1176.238550 76.338 -147.7671
1184.762060 79.237 142.5381
1193.347334 81.241 98.1704
1201.994821 81.926 56.5498
1210.704971 81.269 18.8027
1219.478238 79.262 -9.0576
1228.315080 76.739 -3.3618
1237.215957 76.088 17.5571
1246.181334 77.135 8.6353
1255.211678 77.476 -15.7954
1264.307459 76.667 -39.6001
1273.469152 75.014 -58.9419
1282.697235 72.860 -75.1367
1291.992188 70.283 -88.7031
1301.354495 68.136 -63.8584
1310.784647 68.355 -51.8774
1320.283132 69.831 -72.5176
1329.850448 71.088 -139.8740
1339.487093 72.102 120.3994
1349.193569 73.266 65.3823
1358.970381 73.495 22.9966
1368.818041 72.034 -2.2139
1378.737061 70.079 8.9980
1388.727958 69.983 36.9385
1398.791253 71.208 34.0493
1408.927471 72.080 14.4976
1419.137140 72.278 -5.4946
1429.420793 72.764 -2.3599
1439.778965 74.125 -5.2729
1450.212197 74.994 -45.4409
1460.721033 75.481 132.4990
1471.306019 76.090 73.0708
1481.967709 76.551 42.9639
1492.706658 77.513 26.4072
1503.523426 78.643 6.5342
1514.418576 78.557 -19.6201
1525.392678 76.945 -36.7412
1536.446302 75.622 -25.5576
1547.580025 76.747 -9.8330
1558.794428 78.426 -26.5293
1570.090095 79.214 -52.8311
1581.467615 79.163 -81.4912
1592.927581 78.820 -112.0332
1604.470591 78.837 -154.8130
1616.097246 79.011 144.6807
1627.808153 78.940 84.3745
1639.603922 78.665 47.9956
1651.485168 79.162 34.4731
1663.452510 79.886 11.1948
1675.506573 80.001 -13.7695
1687.647984 79.845 -32.4312
1699.877377 80.355 -29.8838
1712.195390 81.439 -37.7998
1724.602663 81.559 -66.0029
1737.099845 80.558 -94.2305
1749.687587 79.181 -120.2119
1762.366544 78.257 -142.1826
1775.137379 78.190 147.3794
1788.000756 78.851 43.9067
1800.957346 80.616 25.0396
1814.007826 82.427 -3.9580
1827.152874 83.049 -38.0903
1840.393177 82.975 -57.9722
1853.729425 83.448 -70.0967
1867.162312 83.949 -97.3076
1880.692540 83.743 -133.0376
1894.320813 82.813 -177.8706
1908.047843 81.458 110.0820
1921.874344 80.836 15.3115
1935.801038 81.053 -36.0034
1949.828650 81.792 -56.5503
1963.957912 83.917 -54.3018
1978.189561 85.648 -82.2437
1992.524338 85.339 -121.2622
2006.962991 83.028 -142.0146
2021.506272 80.510 -150.3794
2036.154940 80.055 -171.6094
2050.909758 80.935 129.8872
2065.771495 81.751 56.4717
2080.740927 83.504 16.3955
2095.818833 85.821 -17.1484
2111.006001 87.579 -51.1299
