* Measurement data measured by REW V5.31.1
* Source: Scarlett 2i4 USB, MICROPHONE, R, volume: no control
* Format: 512k Log Swept Sine, 1 sweep at -18.0 dBFS with no timing reference
* Dated: May 7, 2024 1:52:27 PM
* REW Settings:
*  C-weighting compensation: Off
*  Target level: 75.0 dB
* Note: ; 
* Measurement: front-empty-p2-l
* Smoothing: 1/48 octave
* Frequency Step: 96 ppo
* Start Frequency: 10.093689 Hz
*
* Freq(Hz) SPL(dB) Phase(degrees)
10.093689 33.811 5.8116
10.166832 34.806 17.4608
10.240505 35.989 27.2077
10.314712 37.197 34.1037
10.389457 38.405 38.3163
10.464743 39.578 40.4038
10.540575 40.701 41.2572
10.616956 41.774 41.2618
10.693891 42.771 40.6249
10.771383 43.660 39.4664
10.849437 44.433 37.7975
10.928057 45.105 35.7785
11.007246 45.691 33.5938
11.087009 46.209 31.3511
11.167350 46.660 28.9670
11.248273 47.038 26.3077
11.329783 47.344 23.5724
11.411883 47.587 20.9249
11.494578 47.770 18.3626
11.577873 47.887 15.6055
11.661771 47.938 12.8143
11.746277 47.925 10.1876
11.831395 47.848 7.8007
11.917130 47.704 5.3687
12.003487 47.493 3.0075
12.090469 47.215 0.9218
12.178081 46.866 -0.7567
12.266329 46.443 -2.1853
12.355216 45.960 -3.2823
12.444747 45.430 -3.8860
12.534926 44.839 -3.7611
12.625760 44.195 -2.8253
12.717251 43.564 -1.1323
12.809406 43.009 1.2056
12.902228 42.529 4.5969
12.995723 42.130 8.8507
13.089895 41.856 13.2717
13.184750 41.753 17.2822
13.280292 41.818 21.0388
13.376526 41.959 24.1648
13.473458 42.083 26.3983
13.571093 42.195 27.5949
13.669434 42.274 28.0320
13.768489 42.244 28.1266
13.868261 42.062 27.9511
13.968756 41.739 27.1748
14.069979 41.224 26.5077
14.171936 40.430 26.7809
14.274632 39.289 27.7278
14.378072 38.020 30.2763
14.482261 36.930 36.6086
14.587206 36.050 49.5993
14.692910 35.541 70.5019
14.799381 35.862 91.5337
14.906624 37.324 105.1704
15.014643 39.442 112.2546
15.123446 41.458 114.4689
15.233036 43.037 113.6232
15.343421 44.360 111.3144
15.454606 45.484 108.0912
15.566596 46.416 103.9301
15.679398 47.161 99.0189
15.793018 47.761 93.8790
15.907460 48.238 88.3235
16.022732 48.585 82.1157
16.138840 48.826 75.8336
16.255788 48.969 69.2529
16.373585 49.014 62.0320
16.492234 48.981 54.7969
16.611744 48.872 47.1922
16.732119 48.697 38.9930
16.853367 48.476 30.8440
16.975494 48.212 22.2546
17.098505 47.922 13.2611
17.222408 47.629 4.4938
17.347209 47.335 -4.5309
17.472914 47.057 -13.4703
17.599530 46.809 -21.8204
17.727063 46.592 -29.8888
17.855521 46.413 -37.2418
17.984909 46.276 -43.6494
18.115235 46.186 -49.2749
18.246506 46.154 -53.9457
18.378727 46.181 -57.5726
18.511907 46.276 -60.5272
18.646052 46.446 -62.7552
18.781169 46.678 -64.4001
18.917265 46.955 -65.8796
19.054347 47.271 -67.0889
19.192423 47.588 -68.1740
19.331499 47.888 -69.2693
19.471583 48.159 -70.1946
19.612682 48.377 -70.8439
19.754804 48.549 -71.2589
19.897956 48.692 -71.0578
20.042144 48.811 -70.2590
20.187378 48.964 -68.8139
20.333664 49.192 -66.5965
20.481010 49.523 -63.9676
20.629424 50.005 -61.3404
20.778913 50.622 -58.8615
20.929486 51.327 -57.3071
21.081150 52.099 -56.4831
21.233912 52.861 -56.6585
21.387782 53.582 -57.7294
21.542767 54.228 -59.3977
21.698874 54.773 -61.6947
21.856113 55.212 -64.2478
22.014492 55.535 -66.9218
22.174018 55.749 -69.5953
22.334700 55.862 -71.8727
22.496546 55.891 -73.8307
22.659566 55.872 -75.0247
22.823766 55.837 -75.5552
22.989157 55.854 -75.3319
23.155745 55.953 -74.4538
23.323542 56.185 -73.4529
23.492554 56.545 -72.4268
23.662790 57.002 -72.0716
23.834261 57.521 -72.2874
24.006973 58.032 -73.2949
24.180938 58.512 -74.8718
24.356163 58.921 -76.7805
24.532658 59.259 -78.8641
24.710431 59.532 -80.7004
24.889493 59.771 -82.2562
25.069853 60.019 -83.1929
25.251519 60.328 -83.7589
25.434502 60.750 -83.9058
25.618811 61.298 -84.3220
25.804456 61.973 -85.0941
25.991445 62.714 -86.8810
26.179790 63.478 -89.5372
26.369500 64.194 -93.2443
26.560584 64.830 -97.6976
26.753053 65.344 -102.8035
26.946917 65.721 -108.1566
27.142185 65.950 -113.7377
27.338869 66.030 -118.9342
27.536977 65.969 -123.8003
27.736522 65.800 -127.6511
27.937512 65.574 -130.5023
28.139959 65.367 -131.8863
28.343872 65.295 -132.2224
28.549264 65.428 -131.6574
28.756143 65.802 -131.4229
28.964522 66.356 -132.0132
29.174411 66.999 -133.9664
29.385821 67.617 -137.2771
29.598763 68.150 -141.6849
29.813248 68.543 -146.9315
30.029287 68.782 -152.4971
30.246891 68.857 -158.3120
30.466073 68.780 -163.8022
30.686842 68.570 -168.8320
30.909212 68.255 -173.1695
31.133193 67.885 -176.5594
31.358797 67.511 -179.0860
31.586035 67.176 179.2700
31.814921 66.917 178.1107
32.045465 66.728 177.2378
32.277680 66.593 176.4686
32.511577 66.480 175.7747
32.747169 66.383 175.3785
32.984469 66.321 175.4184
33.223488 66.342 176.0672
33.464239 66.510 177.0397
33.706735 66.850 177.8832
33.950987 67.348 178.1071
34.197010 67.930 177.1959
34.444816 68.519 175.1866
34.694417 69.060 172.2758
34.945827 69.516 168.7281
35.199059 69.887 164.9787
35.454126 70.197 161.2662
35.711041 70.482 157.7053
35.969818 70.784 154.3305
36.230470 71.135 150.9192
36.493011 71.536 147.1814
36.757455 71.963 142.9355
37.023814 72.380 138.0768
37.292104 72.744 132.6340
37.562338 73.028 126.8697
37.834530 73.224 121.0801
38.108695 73.346 115.5361
38.384846 73.433 110.4903
38.662999 73.540 106.1057
38.943167 73.732 102.2652
39.225365 74.048 98.6140
39.509608 74.483 94.7724
39.795911 75.005 90.4763
40.084289 75.568 85.6557
40.374756 76.138 80.4442
40.667328 76.716 75.1027
40.962020 77.335 69.8164
41.258848 78.044 64.5298
41.557827 78.873 58.9414
41.858972 79.814 52.6270
42.162299 80.820 45.2231
42.467824 81.821 36.5583
42.775564 82.748 26.6738
43.085533 83.548 15.7700
43.397749 84.186 4.1390
43.712227 84.645 -7.8779
44.028983 84.918 -19.9402
44.348036 85.012 -31.7283
44.669400 84.945 -42.9451
44.993093 84.745 -53.3294
45.319131 84.455 -62.6862
45.647532 84.122 -70.9252
45.978313 83.796 -78.0902
46.311491 83.512 -84.3447
46.647083 83.288 -89.8987
46.985107 83.124 -94.9163
47.325581 83.016 -99.4718
47.668521 82.968 -103.5795
48.013947 82.994 -107.2673
48.361876 83.110 -110.6317
48.712326 83.328 -113.8385
49.065315 83.646 -117.0825
49.420863 84.055 -120.5471
49.778987 84.539 -124.3862
50.139706 85.074 -128.7089
50.503039 85.635 -133.5543
50.869005 86.200 -138.8777
51.237623 86.762 -144.5751
51.608912 87.331 -150.5652
51.982891 87.924 -156.8960
52.359580 88.553 -163.7980
52.739000 89.197 -171.6122
53.121168 89.804 179.3804
53.506106 90.302 169.1047
53.893833 90.620 157.6952
54.284370 90.699 145.4581
54.677737 90.497 132.8404
55.073955 89.992 120.3845
55.473043 89.184 108.7039
55.875024 88.102 98.4368
56.279917 86.811 90.1576
56.687745 85.418 84.2039
57.098527 84.048 80.3648
57.512287 82.779 77.9595
57.929045 81.616 76.4551
58.348822 80.532 75.9164
58.771642 79.549 76.7677
59.197525 78.762 79.1155
59.626495 78.279 82.3170
60.058573 78.135 85.3495
60.493782 78.285 87.3353
60.932145 78.637 87.6560
61.373685 79.070 85.9467
61.818424 79.451 82.2410
62.266386 79.669 77.0820
62.717593 79.678 71.2336
63.172071 79.494 65.4528
63.629842 79.181 60.2068
64.090930 78.811 55.5071
64.555359 78.430 51.0543
65.023154 78.048 46.5365
65.494339 77.652 41.8339
65.968938 77.239 36.9244
66.446976 76.815 31.7153
66.928478 76.380 25.9893
67.413469 75.920 19.5010
67.901975 75.411 12.0621
68.394021 74.833 3.5198
68.889632 74.177 -6.3477
69.388835 73.455 -17.8295
69.891655 72.708 -31.3811
70.398118 72.041 -47.5212
70.908252 71.623 -66.6686
71.422083 71.640 -88.4154
71.939636 72.154 -111.1379
72.460941 73.039 -132.7821
72.986023 74.084 -152.2750
73.514909 75.109 -169.5120
74.047629 76.012 175.2083
74.584208 76.758 161.5909
75.124676 77.359 149.4502
75.669061 77.852 138.4791
76.217390 78.266 128.2273
76.769692 78.595 118.1359
77.325997 78.791 107.8285
77.886333 78.796 97.3379
78.450730 78.580 86.9194
79.019216 78.134 76.7937
79.591822 77.451 66.9849
80.168577 76.478 57.4484
80.749512 75.115 48.5509
81.334656 73.243 41.7119
81.924040 70.840 40.5453
82.517696 68.425 55.0927
83.115653 67.793 94.0605
83.717943 69.598 116.9347
84.324598 71.934 120.3787
84.935649 73.885 116.6653
85.551128 75.353 110.2922
86.171066 76.426 103.1443
86.795497 77.225 96.0923
87.424453 77.856 89.3160
88.057967 78.378 82.5947
88.696071 78.812 75.7427
89.338800 79.174 68.8036
89.986185 79.502 61.8838
90.638262 79.854 54.8673
91.295065 80.274 47.2051
91.956626 80.738 37.9031
92.622982 81.119 26.0120
93.294166 81.217 11.3730
93.970214 80.851 -5.1454
94.651161 79.916 -21.9370
95.337042 78.419 -37.0420
96.027894 76.504 -48.7584
96.723752 74.448 -56.8101
97.424652 72.557 -62.7916
98.130631 71.032 -68.3594
98.841726 70.011 -74.3865
99.557974 69.591 -81.9684
100.279412 69.760 -91.8571
101.006078 70.425 -103.9198
101.738010 71.429 -118.0439
102.475245 72.522 -134.1375
103.217823 73.469 -151.4008
103.965782 74.153 -168.5660
104.719161 74.570 175.2959
105.477999 74.743 160.4441
106.242336 74.664 146.8330
107.012212 74.300 134.7234
107.787666 73.645 124.8406
108.568740 72.763 118.1063
109.355474 71.797 115.3334
110.147909 70.995 117.0282
110.946086 70.665 122.1958
111.750047 70.911 127.3849
112.559834 71.516 130.2134
113.375489 72.240 131.2217
114.197055 73.004 131.3335
115.024574 73.798 130.6704
115.858089 74.597 128.8838
116.697645 75.328 125.6569
117.543284 75.914 121.2932
118.395051 76.326 116.5615
119.252990 76.595 112.2222
120.117147 76.806 108.8517
120.987565 77.065 106.2990
121.864291 77.398 103.4630
122.747370 77.729 99.6523
123.636848 77.981 95.1138
124.532771 78.109 89.9685
125.435187 78.037 84.0018
126.344142 77.655 77.7384
127.259684 76.920 73.0283
128.181860 75.994 72.6683
129.110718 75.335 78.2998
130.046308 75.377 85.7068
130.988677 75.936 88.7863
131.937875 76.532 87.8016
132.893951 76.952 85.6528
133.856956 77.270 84.4785
134.826938 77.684 84.7256
135.803950 78.274 84.3427
136.788041 78.894 81.6591
137.779264 79.379 77.2157
138.777669 79.684 72.4159
139.783309 79.935 68.9459
140.796237 80.351 66.6401
141.816504 80.930 62.2988
142.844165 81.391 54.4238
143.879273 81.499 44.4532
144.921881 81.161 34.0410
145.972045 80.365 24.7407
147.029819 79.202 18.5883
148.095257 77.944 17.2100
149.168417 76.997 19.3884
150.249353 76.548 20.4257
151.338121 76.367 18.1171
152.434780 76.198 13.7510
153.539385 75.948 7.3871
154.651995 75.496 -2.3942
155.772667 74.617 -16.4801
156.901460 73.087 -34.9410
158.038432 70.919 -60.2661
159.183644 68.859 -112.4291
160.337154 68.469 167.4160
161.499023 69.612 132.7467
162.669312 70.835 114.4468
163.848081 71.521 101.7416
165.035392 71.579 93.2440
166.231306 71.361 93.1151
167.435887 71.768 103.8896
168.649196 73.289 115.7939
169.871298 75.401 121.3655
171.102255 77.508 120.4736
172.342133 79.327 115.0623
173.590995 80.780 107.0730
174.848907 81.866 97.7325
176.115934 82.601 87.7572
177.392143 83.014 77.8330
178.677599 83.136 68.2947
179.972371 82.957 59.1658
181.276525 82.462 51.4265
182.590129 81.766 47.1831
183.913252 81.171 46.8597
185.245964 80.997 48.8811
186.588332 81.431 51.5691
187.940428 82.349 51.3446
189.302322 83.300 45.1417
190.674085 83.853 34.0255
192.055788 83.803 20.8165
193.447503 83.122 7.9030
194.849303 81.845 -3.6770
196.261262 79.962 -13.1750
197.683452 77.567 -15.0067
199.115948 75.757 13.9248
200.558824 76.425 49.5581
202.012156 78.346 50.1885
203.476019 79.782 38.9883
204.950490 80.284 23.4908
206.435646 79.778 6.8330
207.931564 78.233 -8.2701
209.438322 75.749 -13.0377
210.955998 73.253 27.8253
212.484672 72.841 57.5117
214.024424 75.162 69.3271
215.575333 79.013 100.0062
217.137481 82.726 110.0623
218.710948 85.379 94.4537
220.295818 86.788 72.3481
221.892172 87.154 52.2854
223.500094 86.836 37.3541
225.119668 86.262 28.6355
226.750978 85.951 25.7576
228.394109 86.119 22.5474
230.049147 86.363 14.7277
231.716178 86.312 5.7616
233.395289 86.013 -1.0132
235.086567 85.708 -5.6627
236.790102 85.595 -9.0295
238.505980 85.673 -13.7626
240.234293 85.560 -23.2307
241.975130 84.927 -32.3063
243.728581 84.087 -34.4952
245.494739 83.685 -33.0491
247.273695 83.813 -35.4906
249.065542 84.023 -42.9038
250.870374 84.043 -52.2853
252.688284 83.887 -62.9420
254.519367 83.490 -77.2583
256.363720 82.585 -96.1406
258.221437 80.920 -118.1948
260.092616 78.448 -143.8008
261.977354 75.602 177.3286
263.875750 74.269 108.7112
265.787903 75.871 67.7664
267.713911 78.182 43.8862
269.653877 79.953 23.6282
271.607900 81.104 5.0903
273.576083 81.576 -14.2244
275.558528 81.198 -34.5925
277.555338 79.896 -53.0242
279.566619 78.310 -53.6731
281.592474 78.491 4.4868
283.633009 80.364 5.4932
285.688331 81.911 -12.0703
287.758546 82.498 -31.7412
289.843763 82.156 -48.9072
291.944090 81.206 -60.0437
294.059638 80.075 -66.6055
296.190515 78.978 -71.6045
298.336833 78.152 -71.1926
300.498705 78.264 -63.0688
302.676243 79.237 -63.4902
304.869559 80.113 -74.5352
307.078770 80.416 -89.2515
309.303989 80.073 -104.9041
311.545334 79.076 -120.1130
313.802919 77.571 -130.9294
316.076865 76.690 -120.4414
318.367288 78.101 -95.0095
320.674309 80.467 -102.0615
322.998047 82.297 -122.5042
325.338624 83.384 -145.9092
327.696162 83.812 -169.7314
330.070783 83.689 167.7764
332.462612 83.239 148.6372
334.871773 82.743 132.1116
337.298392 82.194 115.2510
339.742595 81.341 98.8345
342.204510 80.147 87.5054
344.684265 79.061 83.9343
347.181989 78.578 81.6184
349.697813 78.769 79.5471
352.231868 79.570 77.6016
354.784285 80.478 68.6782
357.355198 80.855 53.9172
359.944741 80.459 39.0566
362.553049 79.438 29.2671
365.180258 78.218 25.4814
367.826505 77.099 22.6812
370.491927 76.150 23.7834
373.176665 75.704 30.9001
375.880856 75.811 32.4863
378.604644 76.380 35.9866
381.348169 77.444 40.0884
384.111575 78.229 31.3274
386.895006 78.141 20.0774
389.698607 77.914 25.9895
392.522524 78.640 35.2412
395.366904 79.817 29.9580
398.231895 80.853 21.5593
401.117648 81.547 10.0015
404.024312 81.685 -4.0962
406.952038 81.306 -16.6157
409.900981 80.688 -26.7156
412.871292 79.936 -38.4233
415.863128 78.724 -52.9031
418.876643 76.766 -63.3235
421.911996 74.320 -64.8997
424.969344 71.988 -63.1504
428.048847 70.049 -67.1248
431.150666 69.017 -64.5056
434.274961 70.334 -69.9980
437.421897 72.880 -116.9375
440.591636 75.020 177.8013
443.784345 76.326 130.6389
447.000189 77.053 101.7410
450.239337 77.837 86.9995
453.501956 78.924 76.6409
456.788219 80.135 67.8750
460.098294 81.295 58.6560
463.432356 82.029 45.4170
466.790578 82.341 34.7566
470.173135 82.724 28.6570
473.580203 83.269 20.0125
477.011961 83.626 7.6453
480.468586 83.699 -4.4258
483.950259 83.622 -17.2534
487.457163 83.021 -36.7046
490.989478 81.265 -56.0579
494.547390 78.304 -55.1919
498.131084 75.071 -28.3018
501.740748 72.938 -16.8035
505.376568 72.191 -6.8296
509.038735 72.852 11.0137
512.727439 74.687 29.1770
516.442874 76.643 29.8672
520.185232 78.394 27.1096
523.954708 80.247 26.3479
527.751500 81.903 18.4451
531.575805 82.820 3.3320
535.427822 82.969 -10.9832
539.307753 82.828 -20.6936
543.215800 82.630 -32.3591
547.152165 81.959 -48.6257
551.117055 80.571 -64.9424
555.110677 78.883 -79.3333
559.133237 78.233 0.1135
563.184947 79.064 11.7791
567.266018 79.722 -8.9565
571.376661 79.722 -23.9182
575.517092 79.587 -30.8389
579.687526 79.480 -40.5161
583.888181 78.749 -54.4094
588.119275 77.457 -54.4373
592.381030 76.541 -52.7654
596.673667 75.610 -68.9436
600.997410 73.837 -86.4043
605.352485 72.509 -9.3335
609.739119 73.925 42.2866
614.157540 76.103 37.7476
618.607979 77.381 22.4563
623.090667 78.118 12.2876
627.605839 79.002 6.7717
632.153730 80.571 12.5618
636.734576 82.450 11.6614
641.348617 83.564 -5.4609
645.996094 83.615 -24.5737
650.677248 82.643 -39.1875
655.392323 81.137 -38.8511
660.141566 80.181 -32.9011
664.925224 80.260 -28.4954
669.743546 80.998 -28.8140
674.596784 82.035 -30.0356
679.485191 83.166 -34.7354
684.409020 83.747 -48.4651
689.368530 83.527 -61.7954
694.363979 82.886 -71.9226
699.395626 81.860 -83.9075
704.463736 80.261 -88.7263
709.568570 78.764 -80.8425
714.710396 77.978 -79.2336
719.889483 77.786 -73.8804
725.106099 77.764 -78.1211
730.360516 76.823 -90.4072
735.653010 75.001 -87.5688
740.983855 74.283 -53.5298
746.353329 75.899 -33.0562
751.761713 77.902 -35.6172
757.209288 79.140 -46.3538
762.696339 79.745 -52.9873
768.223151 80.662 -49.7466
773.790013 81.978 -54.3767
779.397214 83.121 -64.9219
785.045047 83.742 -79.1885
790.733808 83.816 -93.1357
796.463791 83.813 -102.0750
802.235296 84.103 -114.0276
808.048623 83.983 -135.4133
813.904077 82.725 -158.6816
819.801961 80.747 -164.4827
825.742584 79.924 -149.1667
831.726255 80.401 -171.6382
837.753287 80.291 143.2908
843.823992 79.479 82.4158
849.938689 79.606 19.7991
856.097695 80.966 -24.3784
862.301332 82.640 -55.9932
868.549922 83.760 -88.2717
874.843793 83.689 -121.6089
881.183272 82.634 -151.3354
887.568689 80.966 -177.5684
894.000378 79.131 159.5024
900.478673 77.595 142.2288
907.003913 76.621 121.9612
913.576437 75.723 79.8181
920.196588 75.346 43.8096
926.864712 76.451 21.1179
933.581156 77.681 -11.7344
940.346270 78.404 -44.9263
947.160407 79.037 -75.9421
954.023921 79.505 -112.4949
960.937172 79.331 -163.1248
967.900519 79.110 62.1582
974.914325 79.802 -23.1396
981.978956 80.242 -68.1885
989.094780 79.556 -102.7168
996.262169 78.180 -127.1382
1003.481495 77.063 -143.4106
1010.753136 76.588 -165.2261
1018.077470 75.383 162.4121
1025.454879 72.832 137.4829
1032.885748 70.817 129.6030
1040.370463 71.959 -83.8062
1047.909417 74.797 -15.1509
1055.503000 77.467 -40.9360
1063.151610 78.848 -81.8545
1070.855645 78.757 -119.5889
1078.615506 77.835 -141.7539
1086.431599 77.487 -149.8154
1094.304330 78.550 -163.6250
1102.234110 80.539 -179.5742
1110.221353 82.540 154.5854
1118.266475 84.215 122.4644
1126.369895 85.509 84.9932
1134.532035 85.888 40.5088
1142.753322 84.850 -7.0347
1151.034184 82.304 -49.2671
1159.375052 78.979 -63.7549
1167.776361 76.760 -63.0352
1176.238550 76.962 -110.9341
1184.762060 79.109 -174.1147
1193.347334 81.250 122.6509
1201.994821 82.007 66.1694
1210.704971 81.660 23.3379
1219.478238 81.326 -8.7637
1228.315080 81.050 -40.6147
1237.215957 80.077 -72.0225
1246.181334 78.402 -89.9966
1255.211678 77.043 -100.2144
1264.307459 76.168 -119.3560
1273.469152 75.869 -143.2236
1282.697235 75.788 -175.5527
1291.992188 75.519 153.2256
1301.354495 75.999 125.8750
1310.784647 77.249 90.2783
1320.283132 77.803 45.1362
1329.850448 77.151 -2.7422
1339.487093 76.070 -54.9131
1349.193569 75.849 -128.2183
1358.970381 76.662 148.2363
1368.818041 77.157 95.6401
1378.737061 77.755 68.9878
1388.727958 78.984 43.4160
1398.791253 79.852 12.0020
1408.927471 80.120 -21.6040
1419.137140 79.686 -56.8867
1429.420793 78.363 -76.2778
1439.778965 76.676 -92.3726
1450.212197 76.596 86.8369
1460.721033 77.945 46.6304
1471.306019 78.798 14.9243
1481.967709 78.760 -10.4521
1492.706658 78.282 -25.1519
1503.523426 78.208 -35.9819
1514.418576 78.086 -51.6387
1525.392678 77.668 -60.9946
1536.446302 77.264 -67.4448
1547.580025 77.344 -54.6411
1558.794428 77.864 -73.3276
1570.090095 78.702 -105.5923
1581.467615 80.808 36.8296
1592.927581 82.704 -2.7803
1604.470591 83.239 -39.9331
1616.097246 82.747 -69.7178
1627.808153 81.745 -94.5039
1639.603922 80.589 -118.8994
1651.485168 79.704 -146.2065
1663.452510 80.548 163.1450
1675.506573 82.602 9.4668
1687.647984 83.217 -41.4385
1699.877377 81.785 -70.9883
1712.195390 80.138 -72.5625
1724.602663 80.383 -76.7637
1737.099845 80.847 -93.0991
1749.687587 80.023 -101.0786
1762.366544 78.829 -96.9160
1775.137379 78.396 -98.9414
1788.000756 78.504 -105.7510
1800.957346 79.059 -106.9341
1814.007826 80.093 -111.7993
1827.152874 80.955 -123.3374
1840.393177 81.570 -121.3247
1853.729425 82.133 -127.3037
1867.162312 82.250 -143.7559
1880.692540 82.341 -154.9189
1894.320813 82.375 -161.2134
1908.047843 82.124 -156.2119
1921.874344 81.350 -168.3687
1935.801038 80.406 -146.4492
1949.828650 80.681 -144.1025
1963.957912 81.175 -164.5757
1978.189561 80.698 176.9536
1992.524338 80.366 -165.3989
2006.962991 81.289 -161.9077
2021.506272 81.741 175.6152
2036.154940 81.109 165.6064
2050.909758 80.179 174.8823
2065.771495 79.679 -171.9629
2080.740927 79.673 -176.7217
