* Measurement data measured by REW V5.31
* Source: Scarlett 2i4 USB, MICROPHONE, R, volume: no control. Timing signal peak level -25.4 dBFS, measurement signal peak level -15.0 dBFS
* Format: 512k Log Swept Sine, 1 sweep at -18.0 dBFS using an acoustic timing reference
* Dated: Apr 15, 2024 9:31:21 AM
* REW Settings:
*  C-weighting compensation: Off
*  Target level: 75.0 dB
* Note: ; Delay -0.9021 ms (-309 mm, -(1 ft 0.18 in)) using estimated IR delay relative to Acoustic reference played from SPEAKER L with no timing offset
* Measurement: empty-p2-rr
* Smoothing: 1/48 octave
* Frequency Step: 96 ppo
* Start Frequency: 10.093689 Hz
*
* Freq(Hz) SPL(dB) Phase(degrees)
10.093689 21.084 21.3888
10.166832 21.408 12.5131
10.240505 21.798 3.2532
10.314712 22.200 -5.8294
10.389457 22.607 -14.3976
10.464743 23.024 -22.5081
10.540575 23.456 -30.9341
10.616956 23.892 -39.3309
10.693891 24.315 -47.2886
10.771383 24.710 -54.6119
10.849437 25.080 -61.9393
10.928057 25.427 -69.4532
11.007246 25.740 -76.7210
11.087009 26.008 -83.4333
11.167350 26.228 -89.8516
11.248273 26.404 -96.6003
11.329783 26.526 -103.2951
11.411883 26.582 -109.5391
11.494578 26.568 -115.3284
11.577873 26.491 -121.4732
11.661771 26.330 -127.7002
11.746277 26.063 -133.5387
11.831395 25.689 -138.7967
11.917130 25.226 -144.3615
12.003487 24.602 -150.0497
12.090469 23.705 -155.2681
12.178081 22.381 -159.5849
12.266329 20.613 -163.7966
12.355216 18.741 -167.4989
12.444747 17.218 -168.8968
12.534926 16.239 -162.6112
12.625760 15.750 -119.5942
12.717251 15.940 -54.3575
12.809406 17.111 -43.7656
12.902228 19.356 -43.8080
12.995723 22.037 -46.3168
13.089895 24.438 -49.8294
13.184750 26.187 -54.1758
13.280292 27.497 -59.0951
13.376526 28.549 -63.9993
13.473458 29.471 -68.7498
13.571093 30.263 -73.8731
13.669434 30.913 -79.1651
13.768489 31.451 -84.2186
13.868261 31.894 -89.1487
13.968756 32.232 -94.4160
14.069979 32.472 -99.5874
14.171936 32.623 -104.3768
14.274632 32.683 -109.3721
14.378072 32.648 -114.4062
14.482261 32.519 -119.0352
14.587206 32.297 -123.5538
14.692910 31.976 -128.1156
14.799381 31.549 -132.3140
14.906624 31.012 -136.0330
15.014643 30.362 -139.5430
15.123446 29.591 -142.5668
15.233036 28.680 -144.6722
15.343421 27.639 -145.7786
15.454606 26.532 -145.7491
15.566596 25.365 -143.9538
15.679398 24.173 -139.4846
15.793018 23.218 -132.8757
15.907460 22.732 -124.8676
16.022732 22.656 -115.9679
16.138840 22.852 -108.6732
16.255788 23.276 -104.0407
16.373585 23.856 -101.5634
16.492234 24.354 -100.6724
16.611744 24.682 -101.3834
16.732119 24.855 -103.2166
16.853367 24.843 -105.2451
16.975494 24.638 -107.9515
17.098505 24.226 -110.9767
17.222408 23.588 -113.4614
17.347209 22.719 -115.8997
17.472914 21.575 -117.6892
17.599530 20.063 -117.6818
17.727063 18.281 -115.1632
17.855521 16.655 -108.3703
17.984909 15.354 -93.4680
18.115235 14.697 -72.0374
18.246506 15.197 -54.9179
18.378727 16.647 -45.3308
18.511907 18.112 -41.6993
18.646052 19.204 -42.0726
18.781169 20.021 -44.4983
18.917265 20.546 -47.8477
19.054347 20.783 -52.6215
19.192423 20.769 -57.6047
19.331499 20.519 -63.1969
19.471583 20.030 -69.4127
19.612682 19.305 -75.4875
19.754804 18.334 -82.3811
19.897956 17.090 -89.3291
20.042144 15.566 -96.7030
20.187378 13.697 -104.8605
20.333664 11.430 -113.1541
20.481010 8.727 -122.7911
20.629424 5.389 -133.6467
20.778913 1.677 -145.9446
20.929486 -0.811 -174.6022
21.081150 -1.061 7.0502
21.233912 0.294 -12.4401
21.387782 2.647 -34.7896
21.542767 5.198 -53.9437
21.698874 7.548 -70.7047
21.856113 9.722 -83.9165
22.014492 11.668 -94.5699
22.174018 13.393 -103.2679
22.334700 14.890 -110.4192
22.496546 16.169 -116.5750
22.659566 17.249 -121.7539
22.823766 18.135 -126.3510
22.989157 18.840 -130.1617
23.155745 19.367 -133.4897
23.323542 19.726 -135.9304
23.492554 19.926 -137.6976
23.662790 19.998 -138.2441
23.834261 19.979 -137.6497
24.006973 19.969 -135.5424
24.180938 20.002 -132.0857
24.356163 20.195 -127.8734
24.532658 20.582 -123.5603
24.710431 21.124 -120.4482
24.889493 21.711 -118.7207
25.069853 22.208 -118.9414
25.251519 22.511 -120.5176
25.434502 22.524 -123.7322
25.618811 22.131 -127.6615
25.804456 21.237 -133.0398
25.991445 19.650 -138.6244
26.179790 17.648 -146.6166
26.369500 17.216 -165.0510
26.560584 18.945 30.4323
26.753053 22.093 20.2999
26.946917 25.256 13.0379
27.142185 27.647 5.9695
27.338869 29.520 -0.5058
27.536977 30.962 -6.8299
27.736522 32.076 -12.4976
27.937512 32.905 -17.5807
28.139959 33.503 -21.8406
28.343872 33.938 -24.9059
28.549264 34.271 -26.7638
28.756143 34.620 -27.1027
28.964522 35.076 -26.3667
29.174411 35.728 -24.8585
29.385821 36.580 -23.8671
29.598763 37.585 -23.7896
29.813248 38.636 -25.3029
30.029287 39.644 -28.3025
30.246891 40.546 -32.5693
30.466073 41.290 -37.8826
30.686842 41.853 -43.7640
30.909212 42.219 -50.1620
31.133193 42.376 -56.4885
31.358797 42.321 -62.4677
31.586035 42.056 -67.8399
31.814921 41.611 -71.7684
32.045465 41.060 -73.8763
32.277680 40.525 -73.5090
32.511577 40.234 -70.6788
32.747169 40.349 -66.7715
32.984469 40.878 -63.3742
33.223488 41.654 -62.1171
33.464239 42.439 -63.1140
33.706735 43.102 -65.6661
33.950987 43.561 -69.2010
34.197010 43.798 -72.7036
34.444816 43.849 -75.4321
34.694417 43.795 -76.8404
34.945827 43.766 -76.3229
35.199059 43.960 -74.1177
35.454126 44.477 -71.4124
35.711041 45.296 -69.5314
35.969818 46.284 -69.4778
36.230470 47.265 -71.5101
36.493011 48.138 -75.1176
36.757455 48.848 -79.7738
37.023814 49.376 -85.0479
37.292104 49.722 -90.4968
37.562338 49.907 -95.6975
37.834530 49.960 -100.4016
38.108695 49.919 -104.4156
38.384846 49.832 -107.6013
38.662999 49.751 -109.9453
38.943167 49.723 -111.6448
39.225365 49.770 -112.9963
39.509608 49.890 -114.2773
39.795911 50.060 -115.6744
40.084289 50.256 -117.2375
40.374756 50.457 -118.8854
40.667328 50.664 -120.4685
40.962020 50.893 -121.8889
41.258848 51.167 -123.1672
41.557827 51.501 -124.4238
41.858972 51.899 -125.8167
42.162299 52.352 -127.4709
42.467824 52.850 -129.4460
42.775564 53.389 -131.7654
43.085533 53.973 -134.4934
43.397749 54.604 -137.7993
43.712227 55.268 -141.9486
44.028983 55.926 -147.1906
44.348036 56.523 -153.6501
44.669400 56.999 -161.2908
44.993093 57.300 -169.9373
45.319131 57.383 -179.3234
45.647532 57.215 170.8796
45.978313 56.773 161.0510
46.311491 56.041 151.6321
46.647083 55.022 143.1417
46.985107 53.736 136.1790
47.325581 52.241 131.3490
47.668521 50.640 129.0286
48.013947 49.057 129.0098
48.361876 47.564 130.4865
48.712326 46.127 132.8638
49.065315 44.663 136.7642
49.420863 43.210 144.0708
49.778987 42.068 156.0613
50.139706 41.598 170.0946
50.503039 41.751 -177.9707
50.869005 42.251 -167.8506
51.237623 43.108 -157.0844
51.608912 44.490 -146.4080
51.982891 46.241 -139.5757
52.359580 47.980 -137.6936
52.739000 49.489 -138.7275
53.121168 50.827 -140.2426
53.506106 52.225 -141.0637
53.893833 53.868 -142.1287
54.284370 55.689 -145.6665
54.677737 57.442 -152.9827
55.073955 58.903 -163.7440
55.473043 59.947 -176.8801
55.875024 60.522 168.7312
56.279917 60.613 153.9897
56.687745 60.231 139.8427
57.098527 59.417 127.3267
57.512287 58.269 117.4739
57.929045 56.964 110.9636
58.348822 55.735 107.5388
58.771642 54.738 105.6482
59.197525 53.940 103.8473
59.626495 53.217 102.0884
60.058573 52.531 101.0764
60.493782 51.951 101.0027
60.932145 51.523 101.1116
61.373685 51.191 100.7412
61.818424 50.863 100.1379
62.266386 50.531 100.0361
62.717593 50.262 100.6766
63.172071 50.103 101.7085
63.629842 50.060 103.1168
64.090930 50.209 105.5834
64.555359 50.742 109.1528
65.023154 51.747 111.7271
65.494339 53.022 111.0214
65.968938 54.273 106.8018
66.446976 55.357 100.3784
66.928478 56.288 93.0183
67.413469 57.144 85.1831
67.901975 57.958 76.5408
68.394021 58.674 66.5679
68.889632 59.178 55.2312
69.388835 59.370 43.2052
69.891655 59.204 31.3967
70.398118 58.709 21.0217
70.908252 57.977 12.9246
71.422083 57.142 7.5195
71.939636 56.325 4.8312
72.460941 55.649 5.0697
72.986023 55.331 8.6973
73.514909 55.660 14.6981
74.047629 56.699 20.2684
74.584208 58.271 23.6591
75.124676 60.184 24.4656
75.669061 62.254 21.9060
76.217390 64.234 15.1125
76.769692 65.905 4.6080
77.325997 67.135 -8.3109
77.886333 67.894 -22.0145
78.450730 68.232 -35.1355
79.019216 68.273 -46.6836
79.591822 68.177 -56.4042
80.168577 68.044 -65.0166
80.749512 67.847 -73.3835
81.334656 67.479 -81.5398
81.924040 66.876 -88.4065
82.517696 66.114 -92.5479
83.115653 65.420 -93.1448
83.717943 65.069 -91.0077
84.324598 65.212 -88.0336
84.935649 65.817 -85.8992
85.551128 66.731 -85.8639
86.171066 67.747 -88.5518
86.795497 68.692 -93.7188
87.424453 69.468 -100.7593
88.057967 70.013 -109.3049
88.696071 70.245 -119.1270
89.338800 70.057 -129.5918
89.986185 69.361 -139.2567
90.638262 68.170 -145.7283
91.295065 66.719 -145.9532
91.956626 65.628 -137.9761
92.622982 65.776 -124.0046
93.294166 67.395 -111.3558
93.970214 69.679 -107.6605
94.651161 71.790 -113.4646
95.337042 73.340 -125.2020
96.027894 74.234 -139.6155
96.723752 74.502 -154.4434
97.424652 74.233 -168.1030
98.130631 73.562 -179.4890
98.841726 72.656 171.9449
99.557974 71.696 165.9695
100.279412 70.817 161.7595
101.006078 70.083 158.5050
101.738010 69.511 155.5721
102.475245 69.088 152.3754
103.217823 68.785 148.4304
103.965782 68.547 142.8699
104.719161 68.217 134.4341
105.477999 67.506 123.0577
106.242336 66.143 110.9474
107.012212 64.044 102.3896
107.787666 61.526 102.4633
108.568740 59.580 107.7738
109.355474 59.204 101.3459
110.147909 60.059 73.8267
110.946086 61.411 24.4805
111.750047 62.800 -25.9564
112.559834 63.888 -60.9713
113.375489 64.607 -83.2776
114.197055 65.192 -96.0107
115.024574 65.927 -102.4011
115.858089 66.919 -105.8120
116.697645 68.173 -108.1718
117.543284 69.597 -111.5004
118.395051 70.938 -118.0322
119.252990 71.896 -127.7793
120.117147 72.332 -138.3995
120.987565 72.324 -147.2617
121.864291 72.081 -153.1954
122.747370 71.786 -156.8242
123.636848 71.489 -159.1869
124.532771 71.195 -160.1577
125.435187 71.142 -157.6189
126.344142 72.042 -148.0021
127.259684 74.234 -136.9496
128.181860 76.856 -137.4618
129.110718 79.069 -149.0759
130.046308 80.521 -167.3744
130.988677 81.024 170.6949
131.937875 80.457 148.4548
132.893951 78.835 130.5676
133.856956 76.440 122.0281
134.826938 73.849 121.7356
135.803950 71.487 122.6022
136.788041 69.281 125.7777
137.779264 67.294 134.9523
138.777669 66.321 149.3446
139.783309 67.703 -166.8331
140.796237 70.709 -136.9147
141.816504 73.461 -140.7782
142.844165 75.464 -151.0166
143.879273 76.854 -161.4719
144.921881 77.919 -169.9335
145.972045 78.968 -176.5529
147.029819 79.946 174.4758
148.095257 80.492 161.9281
149.168417 80.423 149.1135
150.249353 79.858 139.3038
151.338121 79.093 133.6794
152.434780 78.440 131.2847
153.539385 78.062 129.8763
154.651995 77.921 127.9043
155.772667 77.904 125.1012
156.901460 77.933 121.5735
158.038432 77.914 116.4360
159.183644 77.583 108.3712
160.337154 76.644 100.7642
161.499023 75.292 102.3108
162.669312 74.409 113.6587
163.848081 74.458 120.7587
165.035392 74.991 123.3950
166.231306 75.747 125.5096
167.435887 76.619 125.0331
168.649196 77.543 123.1248
169.871298 78.651 121.1104
171.102255 79.898 115.8632
172.342133 80.974 105.3395
173.590995 81.495 89.4432
174.848907 81.147 71.0389
176.115934 79.908 55.0566
177.392143 78.039 42.7474
178.677599 75.704 31.0515
179.972371 72.858 22.3979
181.276525 70.130 60.7709
182.590129 69.477 120.4255
183.913252 70.419 116.4354
185.245964 71.302 110.4990
186.588332 72.382 116.6210
187.940428 74.034 125.7244
189.302322 75.366 118.4346
190.674085 75.850 107.5691
192.055788 75.911 102.8644
193.447503 76.101 101.2593
194.849303 76.481 98.6085
196.261262 76.955 95.2744
197.683452 77.376 89.6914
199.115948 77.462 80.9559
200.558824 77.013 71.9031
202.012156 76.212 65.7523
203.476019 75.898 65.4291
204.950490 77.389 97.2635
206.435646 79.996 115.0437
207.931564 81.959 96.9291
209.438322 82.692 72.1666
210.955998 82.133 48.7971
212.484672 80.466 35.7085
214.024424 78.537 38.9601
215.575333 77.311 39.4429
217.137481 76.545 34.5582
218.710948 76.421 43.8018
220.295818 77.657 58.0779
221.892172 79.137 50.2355
223.500094 79.778 33.4797
225.119668 79.549 19.6630
226.750978 78.944 10.0352
228.394109 78.160 1.2729
230.049147 77.385 -3.2382
231.716178 76.891 -7.7458
233.395289 76.671 -13.5863
235.086567 76.565 -21.7218
236.790102 76.405 -31.8018
238.505980 76.085 -43.8792
240.234293 75.882 -51.0018
241.975130 76.753 -48.3230
243.728581 78.384 -60.2065
245.494739 79.507 -86.8276
247.273695 79.387 -119.7017
249.065542 77.888 -149.6433
250.870374 75.496 -172.7144
252.688284 73.088 164.7944
254.519367 72.226 145.4292
256.363720 74.224 -91.7529
258.221437 77.025 -121.6357
260.092616 78.707 -160.4121
261.977354 78.637 159.8286
263.875750 77.046 140.9009
265.787903 75.009 160.3972
267.713911 73.685 156.0613
269.653877 74.805 179.8601
271.607900 78.131 -153.4504
273.576083 80.978 -171.3311
275.558528 82.286 156.4561
277.555338 82.063 125.3271
279.566619 80.831 100.9636
281.592474 79.058 79.5237
283.633009 76.692 63.5559
285.688331 74.118 93.8711
287.758546 73.412 132.1729
289.843763 74.968 135.2378
291.944090 76.897 128.4565
294.059638 78.190 114.0466
296.190515 78.631 98.2532
298.336833 78.665 87.9790
300.498705 78.691 77.9072
302.676243 78.687 67.6912
304.869559 78.728 56.3401
307.078770 78.330 36.9902
309.303989 76.841 17.9426
311.545334 74.616 21.5085
313.802919 73.340 53.3240
316.076865 73.823 59.0798
318.367288 74.637 47.5244
320.674309 75.184 40.4531
322.998047 75.381 21.0566
325.338624 75.146 -11.1533
327.696162 74.964 -66.7664
330.070783 74.952 164.4165
332.462612 75.075 102.3223
334.871773 75.136 61.9766
337.298392 74.644 23.6072
339.742595 73.468 -20.0750
342.204510 72.406 -111.6777
344.684265 72.413 143.5442
347.181989 73.062 99.0085
349.697813 73.883 62.2708
352.231868 75.020 15.4968
354.784285 76.359 -144.7708
357.355198 77.384 139.3633
359.944741 77.515 93.3950
362.553049 77.310 75.8533
365.180258 77.966 117.1003
367.826505 78.557 91.5789
370.491927 77.865 60.4409
373.176665 76.156 41.7839
375.880856 74.667 34.8557
378.604644 74.647 42.4819
381.348169 75.267 31.9546
384.111575 74.892 5.0354
386.895006 73.391 -16.8330
389.698607 71.393 -23.5950
392.522524 69.325 -5.6296
395.366904 68.128 9.2803
398.231895 68.913 58.9136
401.117648 70.269 41.2061
404.024312 70.849 2.8459
406.952038 70.531 -43.3274
409.900981 69.792 170.7844
412.871292 70.083 99.3672
415.863128 71.370 83.2424
418.876643 71.849 51.0383
421.911996 71.308 22.1821
424.969344 70.890 5.1338
428.048847 71.742 0.9548
431.150666 73.360 -18.0056
434.274961 74.698 -50.6650
437.421897 75.365 -88.6985
440.591636 75.347 -128.8188
443.784345 74.311 -169.2925
447.000189 72.026 159.7734
450.239337 69.442 146.1313
453.501956 68.642 173.7390
456.788219 69.401 -171.2444
460.098294 69.320 160.0076
463.432356 67.927 138.4138
466.790578 66.519 144.9971
470.173135 66.353 159.2007
473.580203 66.817 145.5935
477.011961 66.983 129.1687
480.468586 67.638 134.5869
483.950259 69.484 155.6785
487.457163 70.796 137.6440
490.989478 70.682 111.2427
494.547390 69.661 89.9624
498.131084 68.166 73.4192
501.740748 66.457 62.7896
505.376568 65.227 46.6472
509.038735 65.224 14.9238
512.727439 66.465 -65.6543
516.442874 67.937 -157.9463
520.185232 68.644 149.4160
523.954708 68.173 107.4541
527.751500 66.584 73.7373
531.575805 64.246 67.9253
535.427822 62.238 87.4326
539.307753 61.748 88.4033
543.215800 62.295 59.4512
547.152165 62.422 3.0630
551.117055 62.575 -70.3579
555.110677 64.310 -115.8418
559.133237 66.371 -153.9521
563.184947 67.515 157.7280
567.266018 68.175 -35.4707
571.376661 69.037 -88.9575
575.517092 69.967 -127.8721
579.687526 70.299 -158.8486
583.888181 70.236 -176.9668
588.119275 70.435 166.2925
592.381030 70.267 138.8843
596.673667 68.961 107.6455
600.997410 67.917 92.1426
605.352485 68.466 -150.1455
609.739119 69.269 178.5503
614.157540 69.710 153.7290
618.607979 69.667 173.9492
623.090667 68.673 159.1270
627.605839 67.634 167.4277
632.153730 68.057 -132.2720
636.734576 68.823 -165.5688
641.348617 68.582 157.2090
645.996094 68.061 -165.8115
650.677248 68.825 -123.6904
655.392323 70.107 -151.2695
660.141566 70.434 178.5200
664.925224 69.869 154.2266
669.743546 69.063 140.8052
674.596784 69.006 135.0103
679.485191 70.447 -80.0317
684.409020 72.428 -117.6182
689.368530 73.623 -157.7881
694.363979 73.353 169.2788
699.395626 72.363 167.0762
704.463736 72.070 153.9644
709.568570 71.915 120.4009
714.710396 71.417 90.4590
719.889483 70.902 40.5991
725.106099 70.304 -123.9419
730.360516 70.048 175.7490
735.653010 70.777 114.2251
740.983855 71.769 -35.2217
746.353329 72.227 -101.5723
751.761713 71.813 -146.2202
757.209288 70.669 -164.9014
762.696339 70.376 -172.8174
768.223151 71.202 152.8267
773.790013 72.128 74.7163
779.397214 72.695 -72.2344
785.045047 72.919 -122.7197
790.733808 73.083 -155.3569
796.463791 73.150 178.9077
802.235296 72.663 155.4731
808.048623 71.811 134.6265
813.904077 70.985 107.8555
819.801961 69.993 86.2417
825.742584 69.218 56.5918
831.726255 69.268 -8.4756
837.753287 70.126 -83.7656
843.823992 71.000 -145.6606
849.938689 71.211 160.3887
856.097695 70.787 116.9492
862.301332 70.884 84.1685
868.549922 71.728 40.3140
874.843793 72.228 -8.4722
881.183272 72.073 -55.9761
887.568689 71.433 -98.4761
894.000378 70.245 -130.3457
900.478673 68.962 -143.8765
907.003913 68.217 -157.9390
913.576437 68.283 -174.0259
920.196588 68.918 157.3989
926.864712 68.827 105.5391
933.581156 67.597 11.0654
940.346270 66.597 -57.5947
947.160407 66.914 -79.6768
954.023921 67.613 -68.3159
960.937172 68.006 -88.0181
967.900519 68.494 -114.9707
974.914325 69.229 -146.6777
981.978956 69.540 171.4819
989.094780 69.141 118.7422
996.262169 69.058 -87.1704
1003.481495 69.007 -153.7285
1010.753136 68.505 159.5640
1018.077470 68.485 121.3667
1025.454879 68.560 83.5605
1032.885748 68.055 55.7319
1040.370463 67.701 43.9033
1047.909417 67.711 20.3696
1055.503000 67.777 -4.3809
1063.151610 67.962 -24.0884
1070.855645 68.089 -33.7002
1078.615506 68.481 -37.9624
1086.431599 69.028 -54.7793
1094.304330 68.834 -80.8027
1102.234110 68.196 -109.1660
1110.221353 67.847 -139.4604
1118.266475 68.359 -155.9888
1126.369895 68.892 -151.2041
1134.532035 68.174 165.0151
1142.753322 66.932 118.9961
1151.034184 66.291 78.6494
1159.375052 66.048 45.1377
1167.776361 65.884 26.5391
1176.238550 65.895 32.8203
1184.762060 66.349 60.8643
1193.347334 67.466 71.3662
1201.994821 68.522 40.4360
1210.704971 68.912 1.3623
1219.478238 68.552 -39.6084
1228.315080 67.999 83.1963
1237.215957 67.457 46.9995
1246.181334 66.407 13.9614
1255.211678 65.131 15.9814
1264.307459 64.959 30.2529
1273.469152 65.616 20.0596
1282.697235 66.628 18.4453
1291.992188 68.384 33.7114
1301.354495 70.073 6.6167
1310.784647 70.374 -44.1465
1320.283132 68.702 -131.6602
1329.850448 66.020 50.4277
1339.487093 64.387 0.8755
1349.193569 65.403 -163.2441
1358.970381 66.928 127.4805
1368.818041 67.272 94.4082
1378.737061 66.992 86.5889
1388.727958 66.944 69.3711
1398.791253 67.227 56.2275
1408.927471 67.975 39.1729
1419.137140 68.813 36.4609
1429.420793 69.218 88.5815
1439.778965 68.816 83.2983
1450.212197 68.786 93.3438
1460.721033 69.245 66.2842
1471.306019 69.332 39.6729
1481.967709 69.514 66.3442
1492.706658 70.078 56.0825
1503.523426 70.342 27.6812
1514.418576 69.887 17.2783
1525.392678 68.644 44.9712
1536.446302 68.060 171.1558
1547.580025 68.918 153.4639
1558.794428 69.303 117.2061
1570.090095 68.720 89.3887
1581.467615 67.844 67.6440
1592.927581 67.683 51.8086
1604.470591 67.892 11.5664
1616.097246 67.390 -143.1504
1627.808153 66.639 152.1816
1639.603922 66.516 124.4629
1651.485168 66.626 100.9033
1663.452510 66.015 74.4717
1675.506573 65.682 72.6514
1687.647984 66.583 127.6621
1699.877377 67.560 124.1416
1712.195390 68.223 154.1729
1724.602663 68.815 146.3672
1737.099845 69.104 97.2871
1749.687587 68.866 42.8086
1762.366544 68.874 -41.8525
1775.137379 68.552 -123.2061
1788.000756 67.187 -160.6436
1800.957346 66.050 -140.4521
1814.007826 66.818 -149.7080
1827.152874 68.055 177.9736
1840.393177 68.859 166.1562
1853.729425 69.336 -176.4688
