* Measurement data measured by REW V5.31
* Source: Scarlett 2i4 USB, MICROPHONE, R, volume: no control. Timing signal peak level -26.9 dBFS, measurement signal peak level -17.4 dBFS
* Format: 512k Log Swept Sine, 1 sweep at -18.0 dBFS using an acoustic timing reference
* Dated: Apr 15, 2024 9:34:35 AM
* REW Settings:
*  C-weighting compensation: Off
*  Target level: 75.0 dB
* Note: ; Delay -1.7903 ms (-614 mm, -(2 ft 0.18 in)) using estimated IR delay relative to Acoustic reference played from SPEAKER L with no timing offset
* Measurement: empty-p3-r
* Smoothing: 1/48 octave
* Frequency Step: 96 ppo
* Start Frequency: 10.093689 Hz
*
* Freq(Hz) SPL(dB) Phase(degrees)
10.093689 19.070 6.7474
10.166832 19.502 4.9359
10.240505 20.021 2.7520
10.314712 20.553 0.4057
10.389457 21.074 -1.9740
10.464743 21.533 -4.3825
10.540575 21.894 -7.1200
10.616956 22.188 -9.9936
10.693891 22.420 -12.7570
10.771383 22.589 -15.2026
10.849437 22.690 -17.5972
10.928057 22.726 -20.0699
11.007246 22.701 -22.3490
11.087009 22.619 -24.1269
11.167350 22.467 -25.3067
11.248273 22.241 -26.1568
11.329783 21.984 -26.4931
11.411883 21.749 -26.0567
11.494578 21.553 -24.5729
11.577873 21.369 -21.9900
11.661771 21.260 -18.5353
11.746277 21.323 -14.6418
11.831395 21.633 -10.6497
11.917130 22.173 -6.3879
12.003487 22.863 -2.6943
12.090469 23.626 -0.2407
12.178081 24.439 0.9276
12.266329 25.324 1.4111
12.355216 26.222 1.1132
12.444747 27.063 -0.0390
12.534926 27.826 -1.9793
12.625760 28.533 -4.3953
12.717251 29.177 -7.1130
12.809406 29.749 -10.0929
12.902228 30.246 -13.5447
12.995723 30.671 -17.2492
13.089895 31.023 -20.9448
13.184750 31.304 -24.6564
13.280292 31.510 -28.7225
13.376526 31.639 -32.8168
13.473458 31.689 -36.6190
13.571093 31.659 -40.4881
13.669434 31.545 -44.4640
13.768489 31.339 -48.1441
13.868261 31.036 -51.3438
13.968756 30.633 -54.4541
14.069979 30.127 -57.1664
14.171936 29.503 -58.9772
14.274632 28.738 -59.8580
14.378072 27.907 -59.6203
14.482261 27.111 -57.8020
14.587206 26.326 -53.5660
14.692910 25.661 -46.7642
14.799381 25.385 -38.4803
14.906624 25.679 -29.7808
15.014643 26.401 -21.7921
15.123446 27.298 -16.1970
15.233036 28.262 -13.1388
15.343421 29.297 -11.7709
15.454606 30.270 -11.6762
15.566596 31.095 -12.6481
15.679398 31.804 -14.4141
15.793018 32.408 -16.4521
15.907460 32.907 -18.6845
16.022732 33.304 -21.2229
16.138840 33.621 -23.6318
16.255788 33.865 -25.8448
16.373585 34.042 -28.0245
16.492234 34.178 -29.8961
16.611744 34.281 -31.3962
16.732119 34.364 -32.6471
16.853367 34.458 -33.6366
16.975494 34.570 -34.2748
17.098505 34.709 -34.7550
17.222408 34.890 -35.2805
17.347209 35.113 -35.7383
17.472914 35.362 -36.3668
17.599530 35.630 -37.3219
17.727063 35.906 -38.4931
17.855521 36.163 -39.9308
17.984909 36.392 -41.7182
18.115235 36.580 -43.6818
18.246506 36.710 -45.7044
18.378727 36.781 -47.9054
18.511907 36.788 -49.9343
18.646052 36.726 -51.7851
18.781169 36.605 -53.4113
18.917265 36.438 -54.4692
19.054347 36.233 -55.0105
19.192423 36.036 -54.9316
19.331499 35.867 -54.0499
19.471583 35.763 -52.5525
19.612682 35.780 -50.6659
19.754804 35.916 -48.4182
19.897956 36.169 -46.4493
20.042144 36.537 -44.7764
20.187378 36.966 -43.6428
20.333664 37.422 -43.1763
20.481010 37.882 -43.2037
20.629424 38.309 -43.6717
20.778913 38.700 -44.5017
20.929486 39.048 -45.5209
21.081150 39.352 -46.5537
21.233912 39.625 -47.4931
21.387782 39.872 -48.3999
21.542767 40.106 -49.2027
21.698874 40.340 -49.8567
21.856113 40.578 -50.4299
22.014492 40.827 -50.9543
22.174018 41.084 -51.4480
22.334700 41.345 -51.9754
22.496546 41.607 -52.5063
22.659566 41.861 -53.0237
22.823766 42.109 -53.5095
22.989157 42.353 -53.8635
23.155745 42.601 -54.1014
23.323542 42.868 -54.1689
23.492554 43.163 -54.1043
23.662790 43.502 -54.0207
23.834261 43.886 -53.9531
24.006973 44.311 -54.1323
24.180938 44.766 -54.5386
24.356163 45.227 -55.3320
24.532658 45.680 -56.4143
24.710431 46.101 -57.7719
24.889493 46.485 -59.2597
25.069853 46.824 -60.7432
25.251519 47.132 -62.0825
25.434502 47.422 -63.1335
25.618811 47.729 -63.8837
25.804456 48.079 -64.2701
25.991445 48.507 -64.5861
26.179790 49.022 -64.8765
26.369500 49.617 -65.6290
26.560584 50.271 -66.8563
26.753053 50.943 -68.8503
26.946917 51.597 -71.4735
27.142185 52.201 -74.7615
27.338869 52.730 -78.4330
27.536977 53.173 -82.4547
27.736522 53.525 -86.4792
27.937512 53.793 -90.4292
28.139959 53.993 -94.0804
28.343872 54.157 -97.3088
28.549264 54.310 -100.0752
28.756143 54.498 -102.4198
28.964522 54.744 -104.5550
29.174411 55.063 -106.6490
29.385821 55.439 -109.1205
29.598763 55.847 -112.0271
29.813248 56.242 -115.5994
30.029287 56.583 -119.6808
30.246891 56.838 -124.2631
30.466073 56.977 -129.0617
30.686842 56.989 -133.8184
30.909212 56.867 -138.3941
31.133193 56.624 -142.2769
31.358797 56.291 -145.2947
31.586035 55.912 -147.1165
31.814921 55.578 -147.5968
32.045465 55.371 -146.9855
32.277680 55.355 -145.6129
32.511577 55.547 -144.3584
32.747169 55.889 -143.7304
32.984469 56.314 -143.9294
33.223488 56.747 -144.9579
33.464239 57.150 -146.4637
33.706735 57.518 -148.1950
33.950987 57.866 -149.9149
34.197010 58.232 -151.4552
34.444816 58.649 -152.9135
34.694417 59.143 -154.4403
34.945827 59.720 -156.2573
35.199059 60.363 -158.6927
35.454126 61.041 -161.8862
35.711041 61.721 -165.8762
35.969818 62.370 -170.6721
36.230470 62.957 -176.2063
36.493011 63.460 177.6748
36.757455 63.863 171.1113
37.023814 64.151 164.2320
37.292104 64.314 157.2336
37.562338 64.350 150.4047
37.834530 64.268 143.9698
38.108695 64.090 138.1503
38.384846 63.854 133.1721
38.662999 63.617 129.1855
38.943167 63.444 126.0753
39.225365 63.382 123.5076
39.509608 63.439 121.1060
39.795911 63.589 118.5858
40.084289 63.798 115.8545
40.374756 64.043 113.0266
40.667328 64.334 110.2962
40.962020 64.710 107.6948
41.258848 65.198 105.0138
41.557827 65.797 101.9406
41.858972 66.473 98.2613
42.162299 67.185 93.9812
42.467824 67.912 89.3031
42.775564 68.674 84.4793
43.085533 69.522 79.5950
43.397749 70.507 74.3908
43.712227 71.627 68.2944
44.028983 72.819 60.7519
44.348036 73.987 51.5223
44.669400 75.041 40.7076
44.993093 75.912 28.6266
45.319131 76.557 15.6863
45.647532 76.951 2.3174
45.978313 77.086 -11.0446
46.311491 76.965 -23.9548
46.647083 76.609 -35.9545
46.985107 76.060 -46.5870
47.325581 75.391 -55.4653
47.668521 74.701 -62.4087
48.013947 74.101 -67.6019
48.361876 73.667 -71.6083
48.712326 73.412 -75.1125
49.065315 73.292 -78.5754
49.420863 73.254 -82.1071
49.778987 73.263 -85.5740
50.139706 73.318 -88.7653
50.503039 73.447 -91.5371
50.869005 73.694 -93.9533
51.237623 74.091 -96.3792
51.608912 74.620 -99.3475
51.982891 75.215 -103.1854
52.359580 75.803 -107.7284
52.739000 76.376 -112.4070
53.121168 77.014 -116.7106
53.506106 77.850 -120.8457
53.893833 78.936 -125.9399
54.284370 80.166 -133.3464
54.677737 81.339 -143.6793
55.073955 82.278 -156.6472
55.473043 82.869 -171.4979
55.875024 83.049 172.6278
56.279917 82.791 156.4665
56.687745 82.086 140.8874
57.098527 80.958 126.9139
57.512287 79.486 115.6353
57.929045 77.842 107.8577
58.348822 76.278 103.4016
58.771642 74.991 100.4642
59.197525 73.943 97.2491
59.626495 72.950 93.7339
60.058573 71.927 91.0596
60.493782 70.964 89.9876
60.932145 70.200 89.7862
61.373685 69.635 89.1566
61.818424 69.146 87.8250
62.266386 68.669 86.6545
62.717593 68.278 86.2414
63.172071 68.074 85.9973
63.629842 68.041 84.7395
64.090930 68.056 82.0732
64.555359 68.019 78.5086
65.023154 67.919 74.7775
65.494339 67.806 71.3036
65.968938 67.763 68.2045
66.446976 67.883 65.3153
66.928478 68.248 61.9812
67.413469 68.862 57.0348
67.901975 69.606 49.4547
68.394021 70.293 38.9095
68.889632 70.770 25.8698
69.388835 70.944 11.3175
69.891655 70.796 -3.8711
70.398118 70.372 -18.6464
70.908252 69.775 -32.4528
71.422083 69.143 -45.1406
71.939636 68.579 -57.1389
72.460941 68.104 -68.9978
72.986023 67.677 -80.7875
73.514909 67.287 -92.0980
74.047629 66.999 -102.5956
74.584208 66.916 -112.5076
75.124676 67.074 -122.8049
75.669061 67.391 -134.4465
76.217390 67.708 -147.9126
76.769692 67.884 -163.0034
77.325997 67.834 -179.2749
77.886333 67.551 163.9131
78.450730 67.105 146.8113
79.019216 66.630 129.1821
79.591822 66.277 110.1306
80.168577 66.132 88.5862
80.749512 66.192 64.1046
81.334656 66.397 37.4698
81.924040 66.677 10.5614
82.517696 66.972 -14.6721
83.115653 67.256 -36.8542
83.717943 67.554 -55.3087
84.324598 67.948 -70.0614
84.935649 68.534 -81.8544
85.551128 69.339 -92.1113
86.171066 70.263 -102.4215
86.795497 71.134 -113.6255
87.424453 71.820 -125.5197
88.057967 72.285 -137.4469
88.696071 72.555 -148.9542
89.338800 72.668 -159.8989
89.986185 72.660 -170.2081
90.638262 72.578 -179.8905
91.295065 72.465 170.7623
91.956626 72.344 161.5031
92.622982 72.281 152.2749
93.294166 72.394 141.7382
93.970214 72.593 126.7511
94.651161 72.495 105.1581
95.337042 71.729 76.4092
96.027894 70.229 37.0656
96.723752 68.422 -36.3405
97.424652 67.078 -121.4680
98.130631 66.372 -159.8500
98.841726 65.922 179.5968
99.557974 65.644 168.3278
100.279412 65.552 161.3147
101.006078 65.587 155.8669
101.738010 65.737 150.8555
102.475245 65.961 144.9331
103.217823 66.143 137.1835
103.965782 66.128 127.0375
104.719161 65.705 114.4404
105.477999 64.657 100.6875
106.242336 62.877 88.2085
107.012212 60.422 79.0325
107.787666 57.515 71.7719
108.568740 54.621 57.8644
109.355474 53.169 6.4137
110.147909 54.674 -72.0039
110.946086 57.393 -98.7705
111.750047 59.779 -114.5737
112.559834 61.510 -128.0674
113.375489 62.572 -140.4873
114.197055 63.050 -150.9888
115.024574 63.129 -158.3447
115.858089 63.065 -162.0173
116.697645 63.098 -162.9038
117.543284 63.299 -163.2844
118.395051 63.528 -164.7734
119.252990 63.614 -166.7827
120.117147 63.535 -167.6001
120.987565 63.437 -165.9614
121.864291 63.534 -162.0605
122.747370 63.965 -157.3621
123.636848 64.764 -152.9453
124.532771 65.913 -149.3950
125.435187 67.284 -148.4653
126.344142 68.568 -152.3218
127.259684 69.401 -160.8838
128.181860 69.528 -171.8579
129.110718 68.898 178.3831
130.046308 68.005 177.9751
130.988677 68.483 -155.8457
131.937875 70.667 -138.8354
132.893951 72.727 -147.0830
133.856956 73.899 -161.8706
134.826938 74.225 -176.5115
135.803950 73.859 170.9875
136.788041 72.941 162.1709
137.779264 71.762 160.0657
138.777669 70.971 166.3223
139.783309 71.030 172.4331
140.796237 71.461 171.9680
141.816504 71.817 170.1245
142.844165 72.279 170.8589
143.879273 73.014 170.8232
144.921881 73.702 165.7241
145.972045 73.919 157.1086
147.029819 73.535 149.0500
148.095257 72.700 144.9805
149.168417 71.818 147.1348
150.249353 71.444 154.1030
151.338121 71.865 161.4346
152.434780 72.864 165.4365
153.539385 74.010 164.8218
154.651995 75.037 161.0903
155.772667 75.914 156.0825
156.901460 76.770 151.0657
158.038432 77.706 145.1040
159.183644 78.506 134.6719
160.337154 78.706 119.2168
161.499023 77.995 103.1094
162.669312 76.422 91.8914
163.848081 74.366 89.3809
165.035392 72.556 96.4980
166.231306 71.802 106.1975
167.435887 71.884 107.5491
168.649196 71.749 101.0427
169.871298 70.929 96.6956
171.102255 70.040 104.4270
172.342133 70.104 117.0735
173.590995 70.864 119.3574
174.848907 71.378 114.0481
176.115934 71.451 110.1448
177.392143 71.615 111.7637
178.677599 72.284 113.4849
179.972371 73.215 110.3420
181.276525 73.898 101.3667
182.590129 73.997 89.6218
183.913252 73.551 79.3738
185.245964 72.816 71.5664
186.588332 71.992 64.7344
187.940428 71.248 59.2358
189.302322 71.014 56.6465
190.674085 71.428 47.2781
192.055788 71.606 23.1799
193.447503 70.843 -12.5056
194.849303 69.151 -62.4697
196.261262 67.023 -129.2717
197.683452 65.507 -175.0107
199.115948 65.810 166.8579
200.558824 67.422 155.8911
202.012156 69.025 141.8730
203.476019 70.195 126.1958
204.950490 71.620 117.6484
206.435646 74.022 112.7920
207.931564 76.622 95.1763
209.438322 78.590 65.5884
210.955998 79.612 28.8887
212.484672 79.502 -11.1748
214.024424 78.226 -49.3857
215.575333 76.042 -81.8860
217.137481 73.251 -106.0913
218.710948 70.455 -111.8037
220.295818 69.546 -94.1147
221.892172 70.785 -95.4951
223.500094 72.016 -110.6289
225.119668 72.780 -122.9109
226.750978 73.231 -135.4927
228.394109 73.253 -147.0562
230.049147 73.391 -151.4102
231.716178 74.016 -156.4062
233.395289 74.485 -169.3455
235.086567 73.988 172.9963
236.790102 72.720 162.5117
238.505980 72.560 -174.4214
240.234293 74.409 -137.8010
241.975130 75.973 -152.4246
243.728581 76.255 -169.3394
245.494739 76.143 -165.0664
247.273695 76.429 -166.3208
249.065542 76.778 -174.8857
250.870374 77.188 179.6667
252.688284 77.966 177.6401
254.519367 79.031 172.1348
256.363720 79.974 161.9048
258.221437 80.561 149.3198
260.092616 80.616 134.0901
261.977354 80.110 121.6213
263.875750 79.466 114.4873
265.787903 78.560 104.1555
267.713911 77.235 106.0806
269.653877 76.348 110.5044
271.607900 75.914 103.6104
273.576083 75.565 97.2366
275.558528 75.396 91.7949
277.555338 75.102 78.4321
279.566619 73.947 59.4788
281.592474 72.303 63.8860
283.633009 71.808 111.8606
285.688331 72.126 98.0598
287.758546 72.204 90.6626
289.843763 73.254 118.7983
291.944090 75.158 102.5969
294.059638 76.140 62.3884
296.190515 75.398 2.6406
298.336833 73.362 -118.3945
300.498705 71.797 -172.8777
302.676243 71.940 164.0803
304.869559 72.851 157.2087
307.078770 74.259 157.3247
309.303989 75.672 143.2825
311.545334 76.377 123.6709
313.802919 76.239 107.5481
316.076865 75.959 98.7534
318.367288 75.875 87.1155
320.674309 75.530 71.1550
322.998047 74.868 59.6833
325.338624 75.248 68.8164
327.696162 76.988 72.2830
330.070783 78.082 49.8801
332.462612 77.586 22.1340
334.871773 76.079 3.7227
337.298392 74.890 -4.5942
339.742595 74.559 -21.4324
342.204510 74.152 -49.0134
344.684265 73.042 -80.8848
347.181989 71.013 -100.7559
349.697813 68.675 -70.5854
352.231868 67.259 -74.2200
354.784285 67.166 -97.2456
357.355198 67.124 -133.6802
359.944741 67.034 -153.9473
362.553049 68.524 -60.3826
365.180258 70.306 -109.7466
367.826505 70.542 170.5471
370.491927 69.607 78.4585
373.176665 69.788 29.4910
375.880856 71.238 -6.3184
378.604644 72.339 -40.1348
381.348169 72.706 -69.7087
384.111575 72.238 -91.3296
386.895006 71.604 -98.8960
389.698607 71.546 -109.3635
392.522524 71.924 -119.7478
395.366904 72.699 -131.5564
398.231895 73.428 -149.9617
401.117648 73.437 -173.9233
404.024312 72.319 169.6646
406.952038 70.870 166.4023
409.900981 70.340 151.3250
412.871292 70.471 117.3408
415.863128 70.718 -89.2183
418.876643 71.121 -130.4207
421.911996 71.594 -157.3750
424.969344 72.090 179.9104
428.048847 72.213 159.4558
431.150666 72.322 152.6064
434.274961 73.048 139.7390
437.421897 73.748 115.6084
440.591636 73.592 85.1487
443.784345 72.367 56.5237
447.000189 70.702 40.3037
450.239337 69.496 27.2881
453.501956 69.307 128.4563
456.788219 70.416 120.1201
460.098294 71.767 90.1157
463.432356 72.534 62.3184
466.790578 72.330 35.8115
470.173135 71.299 19.4453
473.580203 70.682 27.4185
477.011961 71.573 32.3574
480.468586 72.960 22.0518
483.950259 73.666 1.3242
487.457163 73.405 -18.2769
490.989478 72.668 -28.9912
494.547390 72.333 -35.7568
498.131084 72.226 -51.8271
501.740748 71.618 -71.0996
505.376568 70.253 -89.8486
509.038735 68.007 -91.8223
512.727439 65.893 -82.7192
516.442874 64.783 -94.6182
520.185232 63.883 -104.9062
523.954708 63.839 -60.4868
527.751500 64.921 20.3877
531.575805 66.105 15.2178
535.427822 67.975 34.7495
539.307753 70.575 28.1338
543.215800 72.793 7.6147
547.152165 74.058 -19.5479
551.117055 74.558 -44.8740
555.110677 74.875 -67.8779
559.133237 75.163 -92.6587
563.184947 74.975 -123.5425
567.266018 73.723 -156.3213
571.376661 71.440 -178.4775
575.517092 69.164 176.2773
579.687526 68.540 174.1489
583.888181 69.585 164.5542
588.119275 70.542 132.7515
592.381030 70.086 92.5903
596.673667 68.610 83.0000
600.997410 68.198 109.3809
605.352485 69.143 95.2002
609.739119 70.438 95.5605
614.157540 72.013 93.0615
618.607979 73.734 88.3730
623.090667 74.842 54.3418
627.605839 74.227 6.7031
632.153730 72.169 -41.6255
636.734576 70.685 -130.0454
641.348617 71.072 136.8804
645.996094 71.876 78.4194
650.677248 71.962 11.9541
655.392323 71.525 -172.5732
660.141566 71.076 124.1079
664.925224 70.703 86.7788
669.743546 70.928 127.2686
674.596784 72.143 147.9253
679.485191 73.833 155.8550
684.409020 75.227 155.9238
689.368530 76.024 130.5742
694.363979 76.740 107.6880
699.395626 77.174 79.5288
704.463736 76.361 49.7417
709.568570 74.935 44.8838
714.710396 74.658 56.9893
719.889483 75.071 21.8589
725.106099 74.791 -49.3843
730.360516 73.761 -156.3950
735.653010 73.300 161.0903
740.983855 74.308 142.7808
746.353329 75.415 122.1021
751.761713 76.097 100.3496
757.209288 76.402 77.3662
762.696339 76.126 50.2891
768.223151 74.903 25.6890
773.790013 73.253 45.4521
779.397214 72.851 48.3496
785.045047 73.933 29.0869
790.733808 75.121 95.1294
796.463791 75.334 80.8257
802.235296 74.738 133.6348
808.048623 74.695 122.5659
813.904077 75.551 93.6738
819.801961 76.208 51.4531
825.742584 75.516 0.5469
831.726255 73.432 -59.4136
837.753287 70.948 -144.8789
843.823992 69.621 178.8091
849.938689 70.740 157.8203
856.097695 72.957 121.9424
862.301332 74.515 71.0103
868.549922 75.046 -2.5742
874.843793 74.764 -96.1089
881.183272 73.768 -167.7583
887.568689 72.397 156.9590
894.000378 71.426 -176.2046
900.478673 70.775 161.9243
907.003913 70.403 133.6367
913.576437 70.862 108.6069
920.196588 72.085 75.0649
926.864712 73.366 31.5527
933.581156 74.184 -26.5186
940.346270 75.037 -82.7573
947.160407 75.482 -131.7559
954.023921 74.473 -150.1255
960.937172 72.462 -149.4214
967.900519 71.832 -146.7866
974.914325 73.734 -122.3032
981.978956 76.128 -146.0166
989.094780 77.495 171.2480
996.262169 77.160 124.1660
1003.481495 75.257 81.7051
1010.753136 72.428 44.1499
1018.077470 70.161 8.5137
1025.454879 70.546 -32.4639
1032.885748 72.257 -85.5894
1040.370463 73.733 -151.9844
1047.909417 74.215 76.0361
1055.503000 73.600 -29.9170
1063.151610 72.677 -78.7822
1070.855645 71.966 -112.1392
1078.615506 72.506 -132.2661
1086.431599 73.659 -44.5840
1094.304330 74.353 -73.6895
1102.234110 74.629 -108.6045
1110.221353 74.549 -146.7812
1118.266475 74.307 178.8989
1126.369895 74.107 144.1030
1134.532035 73.459 105.7363
1142.753322 72.537 80.5474
1151.034184 71.798 69.4282
1159.375052 71.317 44.9229
1167.776361 70.620 24.6875
1176.238550 69.888 12.7637
1184.762060 70.351 15.6167
1193.347334 72.443 25.8037
1201.994821 74.105 1.0903
1210.704971 74.134 -38.0083
1219.478238 73.242 -74.0103
1228.315080 72.101 -120.1465
1237.215957 70.769 -177.2397
1246.181334 70.229 122.9038
1255.211678 70.470 61.9604
1264.307459 70.398 8.4683
1273.469152 69.861 123.6992
1282.697235 69.071 85.6196
1291.992188 68.650 62.9932
1301.354495 68.587 32.9727
1310.784647 68.745 -5.7354
1320.283132 68.949 -54.3613
1329.850448 68.942 -119.9810
1339.487093 68.898 -173.2456
1349.193569 69.179 167.2231
1358.970381 69.607 144.9468
1368.818041 69.523 110.1885
1378.737061 69.535 82.2402
1388.727958 70.364 78.0791
1398.791253 71.063 133.6528
1408.927471 70.865 120.1431
1419.137140 70.489 159.4248
1429.420793 70.722 131.9287
1439.778965 71.192 103.5811
1450.212197 72.065 -154.1743
1460.721033 72.640 -179.2368
1471.306019 72.527 -178.0225
1481.967709 72.468 165.0518
1492.706658 72.499 179.9414
1503.523426 72.673 176.7964
1514.418576 72.843 136.3213
1525.392678 72.243 95.6113
1536.446302 71.052 81.5747
1547.580025 70.362 -120.2632
1558.794428 70.553 -161.8896
1570.090095 70.717 143.6621
1581.467615 70.657 -57.9272
1592.927581 70.672 -116.8188
1604.470591 70.601 -167.1294
1616.097246 70.846 140.1333
1627.808153 71.489 54.6255
1639.603922 71.750 -20.3228
1651.485168 71.337 -67.8003
1663.452510 70.489 -88.6987
1675.506573 70.076 -81.6411
1687.647984 70.389 -87.3896
1699.877377 70.675 -29.2881
1712.195390 70.463 -22.5093
1724.602663 70.463 -31.4575
1737.099845 70.650 -46.6357
1749.687587 70.610 -49.1670
1762.366544 70.235 -43.5146
1775.137379 69.928 -45.5972
1788.000756 69.971 -51.7124
1800.957346 70.303 -55.8389
1814.007826 71.233 -48.3979
1827.152874 72.261 -10.4771
1840.393177 72.455 -14.1626
1853.729425 72.148 -26.6143
1867.162312 71.611 -43.4956
1880.692540 71.069 -52.0942
