* Measurement data measured by REW V5.31
* Source: Scarlett 2i4 USB, MICROPHONE, R, volume: no control. Timing signal peak level -25.8 dBFS, measurement signal peak level -17.6 dBFS
* Format: 512k Log Swept Sine, 1 sweep at -18.0 dBFS using an acoustic timing reference
* Dated: Apr 15, 2024 9:08:09 AM
* REW Settings:
*  C-weighting compensation: Off
*  Target level: 75.0 dB
* Note: ; Delay 0.0067 ms (2.3 mm, 0.09 in) using estimated IR delay relative to Acoustic reference played from SPEAKER L with no timing offset
* Measurement: empty-p1-r
* Smoothing: 1/48 octave
* Frequency Step: 96 ppo
* Start Frequency: 10.093689 Hz
*
* Freq(Hz) SPL(dB) Phase(degrees)
10.093689 22.992 -59.3413
10.166832 23.153 -62.6466
10.240505 23.348 -65.7464
10.314712 23.549 -68.5666
10.389457 23.749 -71.0115
10.464743 23.933 -72.9960
10.540575 24.090 -74.6321
10.616956 24.236 -75.9707
10.693891 24.388 -77.0157
10.771383 24.557 -77.7577
10.849437 24.742 -78.1178
10.928057 24.942 -78.1525
11.007246 25.165 -78.0151
11.087009 25.424 -77.8536
11.167350 25.727 -77.6600
11.248273 26.070 -77.3145
11.329783 26.442 -77.0222
11.411883 26.829 -76.9724
11.494578 27.229 -77.2356
11.577873 27.649 -77.6291
11.661771 28.072 -78.2128
11.746277 28.475 -79.0636
11.831395 28.849 -80.2462
11.917130 29.200 -81.7028
12.003487 29.519 -83.3350
12.090469 29.788 -85.0807
12.178081 30.001 -87.0104
12.266329 30.162 -89.2307
12.355216 30.260 -91.5299
12.444747 30.280 -93.7145
12.534926 30.222 -95.9420
12.625760 30.084 -98.3548
12.717251 29.842 -100.6286
12.809406 29.475 -102.4182
12.902228 28.982 -104.0198
12.995723 28.358 -105.3185
13.089895 27.582 -105.7387
13.184750 26.574 -104.5989
13.280292 25.298 -101.5732
13.376526 24.099 -95.5038
13.473458 23.435 -85.0566
13.571093 23.473 -69.4825
13.669434 24.057 -52.2833
13.768489 25.034 -39.3634
13.868261 26.373 -31.9904
13.968756 28.041 -28.0367
14.069979 29.710 -26.6514
14.171936 31.114 -27.1673
14.274632 32.280 -28.8807
14.378072 33.281 -31.2312
14.482261 34.146 -33.9758
14.587206 34.875 -37.2976
14.692910 35.473 -40.9343
14.799381 35.958 -44.5272
14.906624 36.338 -48.2872
15.014643 36.607 -52.3153
15.123446 36.770 -56.1572
15.233036 36.831 -59.8328
15.343421 36.785 -63.6689
15.454606 36.630 -67.2021
15.566596 36.362 -70.2458
15.679398 35.980 -73.1315
15.793018 35.486 -75.4327
15.907460 34.866 -76.7391
16.022732 34.138 -77.0873
16.138840 33.390 -76.1296
16.255788 32.648 -73.2238
16.373585 31.975 -68.0722
16.492234 31.613 -61.4714
16.611744 31.703 -53.8914
16.732119 32.141 -46.5450
16.853367 32.794 -41.3004
16.975494 33.646 -38.0536
17.098505 34.562 -36.5265
17.222408 35.375 -36.5739
17.347209 36.087 -37.8678
17.472914 36.689 -39.8041
17.599530 37.161 -42.2669
17.727063 37.509 -45.2629
17.855521 37.741 -48.1929
17.984909 37.856 -51.2804
18.115235 37.863 -54.3463
18.246506 37.772 -56.9501
18.378727 37.583 -59.3552
18.511907 37.323 -61.2149
18.646052 36.998 -62.3109
18.781169 36.645 -62.7014
18.917265 36.319 -62.2278
19.054347 36.036 -60.7371
19.192423 35.869 -58.6840
19.331499 35.858 -56.1093
19.471583 35.991 -53.4221
19.612682 36.263 -51.2596
19.754804 36.649 -49.5554
19.897956 37.077 -48.6076
20.042144 37.524 -48.3867
20.187378 37.957 -48.6678
20.333664 38.347 -49.4139
20.481010 38.697 -50.4523
20.629424 39.003 -51.5514
20.778913 39.271 -52.7492
20.929486 39.516 -53.8327
21.081150 39.744 -54.8252
21.233912 39.973 -55.7303
21.387782 40.212 -56.5156
21.542767 40.463 -57.3017
21.698874 40.731 -58.1188
21.856113 41.005 -59.0029
22.014492 41.278 -60.0375
22.174018 41.538 -61.1513
22.334700 41.771 -62.3291
22.496546 41.974 -63.5088
22.659566 42.140 -64.5033
22.823766 42.279 -65.3146
22.989157 42.406 -65.6929
23.155745 42.541 -65.6824
23.323542 42.722 -65.2168
23.492554 42.970 -64.3803
23.662790 43.314 -63.4720
23.834261 43.755 -62.5858
24.006973 44.274 -62.1844
24.180938 44.848 -62.2280
24.356163 45.429 -62.9608
24.532658 45.993 -64.1963
24.710431 46.504 -65.8901
24.889493 46.953 -67.8187
25.069853 47.331 -69.7952
25.251519 47.653 -71.6158
25.434502 47.933 -73.0938
25.618811 48.214 -74.1520
25.804456 48.528 -74.6977
25.991445 48.924 -75.0112
26.179790 49.419 -75.1550
26.369500 50.017 -75.7057
26.560584 50.694 -76.7251
26.753053 51.403 -78.5890
26.946917 52.103 -81.1758
27.142185 52.754 -84.5324
27.338869 53.326 -88.3703
27.536977 53.805 -92.6442
27.736522 54.180 -96.9907
27.937512 54.459 -101.3130
28.139959 54.651 -105.3790
28.343872 54.786 -109.0073
28.549264 54.889 -112.1506
28.756143 55.008 -114.7589
28.964522 55.171 -117.0265
29.174411 55.404 -119.0823
29.385821 55.700 -121.3699
29.598763 56.041 -123.9824
29.813248 56.382 -127.2027
30.029287 56.680 -130.9156
30.246891 56.901 -135.1195
30.466073 57.009 -139.5372
30.686842 56.991 -143.8922
30.909212 56.841 -148.0180
31.133193 56.575 -151.3817
31.358797 56.230 -153.7945
31.586035 55.858 -154.9147
31.814921 55.562 -154.6764
32.045465 55.424 -153.4276
32.277680 55.497 -151.6235
32.511577 55.776 -150.1933
32.747169 56.185 -149.5616
32.984469 56.653 -149.8369
33.223488 57.108 -150.9196
33.464239 57.522 -152.4137
33.706735 57.896 -154.0672
33.950987 58.251 -155.6488
34.197010 58.626 -157.0216
34.444816 59.058 -158.3128
34.694417 59.568 -159.6985
34.945827 60.160 -161.4218
35.199059 60.813 -163.8229
35.454126 61.493 -167.0388
35.711041 62.163 -171.1013
35.969818 62.788 -176.0146
36.230470 63.337 178.3050
36.493011 63.785 172.0241
36.757455 64.115 165.2843
37.023814 64.313 158.2107
37.292104 64.368 150.9945
37.562338 64.276 143.9069
37.834530 64.037 137.1512
38.108695 63.663 130.9463
38.384846 63.175 125.5543
38.662999 62.613 121.2441
38.943167 62.036 118.1327
39.225365 61.512 116.1249
39.509608 61.096 114.9462
39.795911 60.815 114.1805
40.084289 60.662 113.4066
40.374756 60.602 112.3615
40.667328 60.601 110.9894
40.962020 60.640 109.3473
41.258848 60.711 107.4868
41.557827 60.817 105.4279
41.858972 60.960 103.1727
42.162299 61.146 100.7146
42.467824 61.388 98.0200
42.775564 61.706 94.9708
43.085533 62.114 91.3064
43.397749 62.603 86.6409
43.712227 63.130 80.5887
44.028983 63.626 72.9345
44.348036 64.019 63.6848
44.669400 64.242 53.0181
44.993093 64.248 41.2128
45.319131 64.000 28.5938
45.647532 63.478 15.5139
45.978313 62.670 2.3558
46.311491 61.579 -10.4573
46.647083 60.229 -22.4592
46.985107 58.674 -33.1812
47.325581 57.012 -42.2891
47.668521 55.387 -49.8258
48.013947 53.946 -56.3704
48.361876 52.773 -62.7622
48.712326 51.854 -69.4752
49.065315 51.140 -76.2781
49.420863 50.629 -82.4384
49.778987 50.411 -87.2006
50.139706 50.631 -90.3361
50.503039 51.389 -92.5535
50.869005 52.617 -95.2733
51.237623 54.100 -99.6458
51.608912 55.612 -105.8312
51.982891 57.016 -113.1407
52.359580 58.304 -120.5355
52.739000 59.585 -127.1580
53.121168 61.021 -132.9645
53.506106 62.689 -139.0925
53.893833 64.491 -147.0841
54.284370 66.226 -157.7925
54.677737 67.716 -171.0932
55.073955 68.850 173.6920
55.473043 69.570 157.3811
55.875024 69.849 140.7757
56.279917 69.684 124.5459
56.687745 69.089 109.5259
57.098527 68.118 96.6861
57.512287 66.896 86.9290
57.929045 65.632 80.5909
58.348822 64.552 76.8694
58.771642 63.746 73.9495
59.197525 63.107 70.7407
59.626495 62.503 67.5687
60.058573 61.917 65.1937
60.493782 61.426 63.7700
60.932145 61.077 62.6842
61.373685 60.832 61.4968
61.818424 60.653 60.4921
62.266386 60.585 60.1373
62.717593 60.719 60.1611
63.172071 61.067 59.5624
63.629842 61.535 57.6750
64.090930 62.032 54.7106
64.555359 62.540 51.1942
65.023154 63.093 47.3507
65.494339 63.717 43.1035
65.968938 64.435 38.4359
66.446976 65.294 33.4610
66.928478 66.362 27.8481
67.413469 67.625 20.5596
67.901975 68.942 10.6316
68.394021 70.112 -2.1578
68.889632 70.984 -17.1453
69.388835 71.477 -33.1714
69.891655 71.579 -49.2476
70.398118 71.347 -64.1595
70.908252 70.898 -77.2200
71.422083 70.398 -88.1916
71.939636 69.984 -97.6307
72.460941 69.693 -106.4562
72.986023 69.480 -115.0550
73.514909 69.319 -123.2577
74.047629 69.253 -130.9668
74.584208 69.330 -138.7164
75.124676 69.501 -147.5323
75.669061 69.621 -157.9858
76.217390 69.519 -169.8064
76.769692 69.086 177.8752
77.325997 68.289 166.0286
77.886333 67.162 155.4089
78.450730 65.750 146.0500
79.019216 64.034 137.5842
79.591822 61.883 130.2498
80.168577 59.184 127.0844
80.749512 56.578 145.6885
81.334656 56.625 -141.1183
81.924040 59.240 -124.3691
82.517696 61.974 -125.7245
83.115653 64.180 -131.0449
83.717943 65.928 -137.2422
84.324598 67.435 -142.6323
84.935649 68.942 -146.8767
85.551128 70.547 -151.4453
86.171066 72.132 -158.1639
86.795497 73.518 -167.3038
87.424453 74.623 -177.8508
88.057967 75.471 171.2087
88.696071 76.115 160.3452
89.338800 76.603 149.7495
89.986185 76.982 139.5631
90.638262 77.304 129.7035
91.295065 77.598 119.9623
91.956626 77.911 110.4980
92.622982 78.366 101.1487
93.294166 79.003 89.8895
93.970214 79.548 74.3125
94.651161 79.573 54.5255
95.337042 78.761 32.9470
96.027894 76.976 13.4187
96.723752 74.313 1.4314
97.424652 71.278 0.9327
98.130631 68.683 3.8326
98.841726 66.735 3.1892
99.557974 65.084 3.0533
100.279412 63.632 4.8795
101.006078 62.416 8.4598
101.738010 61.643 14.5325
102.475245 61.467 18.8634
103.217823 61.574 18.1537
103.965782 61.595 13.6339
104.719161 61.343 6.4895
105.477999 60.733 -2.3558
106.242336 59.799 -11.7355
107.012212 58.761 -21.1323
107.787666 58.056 -31.7373
108.568740 58.217 -45.8915
109.355474 59.551 -64.0895
110.147909 61.839 -85.1527
110.946086 64.374 -108.9371
111.750047 66.516 -134.9788
112.559834 67.970 -161.4377
113.375489 68.701 173.9319
114.197055 68.845 152.7892
115.024574 68.604 135.6123
115.858089 68.123 121.8055
116.697645 67.456 110.8450
117.543284 66.663 102.8336
118.395051 65.838 97.3524
119.252990 65.013 93.3969
120.117147 64.150 90.8606
120.987565 63.243 90.4453
121.864291 62.375 92.7045
122.747370 61.753 98.6012
123.636848 61.825 109.2317
124.532771 62.960 121.6793
125.435187 64.816 128.5968
126.344142 66.663 126.7765
127.259684 68.021 118.7109
128.181860 68.703 107.8473
129.110718 68.695 97.4496
130.046308 68.211 91.3087
130.988677 67.813 92.1344
131.937875 68.059 95.5850
132.893951 68.760 94.1656
133.856956 69.356 87.8542
134.826938 69.590 79.7725
135.803950 69.422 71.1489
136.788041 68.764 62.0889
137.779264 67.481 55.0850
138.777669 65.732 57.4502
139.783309 64.374 74.1648
140.796237 64.205 88.4117
141.816504 64.904 96.7263
142.844165 66.224 106.5309
143.879273 67.973 112.9929
144.921881 69.683 112.3851
145.972045 71.146 108.7395
147.029819 72.449 104.7833
148.095257 73.634 99.7595
149.168417 74.631 93.1567
150.249353 75.451 86.4297
151.338121 76.254 80.7417
152.434780 77.153 74.8937
153.539385 78.028 66.6080
154.651995 78.603 55.1390
155.772667 78.682 42.6014
156.901460 78.392 33.0298
158.038432 78.206 27.9747
159.183644 78.355 21.5167
160.337154 78.402 9.9514
161.499023 77.958 -2.9055
162.669312 77.057 -13.9983
163.848081 75.821 -23.8556
165.035392 74.230 -32.5447
166.231306 72.308 -35.2559
167.435887 70.638 -25.2260
168.649196 69.858 -19.9574
169.871298 69.179 -26.8601
171.102255 67.763 -33.4490
172.342133 66.002 -27.8960
173.590995 66.103 10.3658
174.848907 68.883 49.5907
176.115934 71.909 47.5310
177.392143 74.136 33.2186
178.677599 75.548 16.2201
179.972371 76.211 -1.8594
181.276525 76.083 -20.0619
182.590129 75.204 -35.0000
183.913252 73.914 -43.5874
185.245964 72.699 -48.4858
186.588332 71.654 -55.1545
187.940428 70.482 -62.0315
189.302322 69.446 -57.2402
190.674085 69.546 -46.3743
192.055788 70.442 -51.6617
193.447503 71.178 -65.7012
194.849303 71.415 -84.8700
196.261262 70.921 -109.3827
197.683452 69.489 -137.5037
199.115948 67.240 -166.6514
200.558824 65.439 161.5803
202.012156 66.183 120.3517
203.476019 68.191 76.4124
204.950490 69.649 37.2100
206.435646 70.472 4.4055
207.931564 71.143 -23.5381
209.438322 71.770 -53.2501
210.955998 71.693 -90.7651
212.484672 70.310 -132.8538
214.024424 67.742 -175.5503
215.575333 64.719 140.5564
217.137481 62.662 98.9192
218.710948 63.462 63.1440
220.295818 66.180 155.8088
221.892172 68.581 157.5991
223.500094 70.077 118.3306
225.119668 71.084 88.1562
226.750978 71.556 59.5359
228.394109 70.881 35.7664
230.049147 69.600 37.4214
231.716178 68.737 34.5061
233.395289 67.654 20.0327
235.086567 66.154 25.1929
236.790102 65.810 44.2087
238.505980 67.167 49.2585
240.234293 69.055 47.3728
241.975130 70.509 36.1318
243.728581 71.390 35.5542
245.494739 72.311 56.4119
247.273695 72.964 43.9326
249.065542 73.238 31.0635
250.870374 74.426 35.9905
252.688284 76.886 41.5107
254.519367 79.276 28.2170
256.363720 80.920 6.0164
258.221437 81.878 -18.0774
260.092616 81.897 -47.9670
261.977354 80.417 -79.3694
263.875750 77.510 -103.4285
265.787903 73.950 -95.2668
267.713911 71.616 -22.6323
269.653877 71.278 -41.0750
271.607900 71.807 -60.8042
273.576083 72.972 37.5168
275.558528 74.257 24.0347
277.555338 75.265 1.3667
279.566619 75.962 -16.6504
281.592474 76.391 -31.2148
283.633009 76.546 -45.6909
285.688331 76.104 -61.8879
287.758546 75.129 -68.0752
289.843763 74.560 -63.9419
291.944090 74.354 -71.8276
294.059638 73.573 -80.9031
296.190515 72.592 -79.9060
298.336833 72.713 -67.7976
300.498705 74.359 -55.2993
302.676243 76.185 -63.8997
304.869559 77.624 -76.5344
307.078770 78.718 -91.8059
309.303989 78.892 -115.4309
311.545334 78.055 -132.8611
313.802919 77.493 -133.0974
316.076865 77.755 -145.8774
318.367288 77.303 -175.9187
320.674309 75.552 151.2644
322.998047 73.639 108.8618
325.338624 73.505 -60.1809
327.696162 74.206 -105.9067
330.070783 74.364 -135.9844
332.462612 74.565 -159.3765
334.871773 75.069 171.0625
337.298392 75.147 129.8542
339.742595 74.277 -16.3545
342.204510 72.749 -134.7146
344.684265 71.596 -159.0830
347.181989 72.392 -154.0271
349.697813 73.993 -167.8442
352.231868 74.449 160.4932
354.784285 73.530 131.5105
357.355198 71.821 112.2334
359.944741 70.363 104.7576
362.553049 70.136 99.9365
365.180258 70.568 84.1636
367.826505 70.990 65.8213
370.491927 72.073 60.5483
373.176665 73.388 44.2251
375.880856 73.472 11.5964
378.604644 72.093 -19.1968
381.348169 69.917 -36.9331
384.111575 68.164 -29.0596
386.895006 67.528 -23.8752
389.698607 67.431 -34.9785
392.522524 67.694 -47.7185
395.366904 67.650 -73.9421
398.231895 66.988 -79.3882
401.117648 66.730 -12.7732
404.024312 67.059 -26.0525
406.952038 68.006 -17.7375
409.900981 69.129 -31.2937
412.871292 69.459 -61.2893
415.863128 69.348 -81.7620
418.876643 69.699 -92.8438
421.911996 70.615 -80.8938
424.969344 71.450 -77.3252
428.048847 71.470 -104.7305
431.150666 70.781 -128.3572
434.274961 70.164 -143.2253
437.421897 70.833 -146.6802
440.591636 72.229 -166.7183
443.784345 72.783 155.4663
447.000189 72.140 110.1392
450.239337 70.666 53.5996
453.501956 69.887 -56.4622
456.788219 70.504 -132.1572
460.098294 71.327 -174.4766
463.432356 72.663 165.1941
466.790578 74.619 143.0327
470.173135 76.087 105.9519
473.580203 76.160 61.8508
477.011961 74.545 22.8413
480.468586 71.973 16.3799
483.950259 70.100 20.9678
487.457163 69.406 -13.2563
490.989478 70.084 -91.5322
494.547390 71.628 103.3633
498.131084 72.327 52.6206
501.740748 71.716 9.6978
505.376568 70.435 -23.1089
509.038735 69.640 -59.5527
512.727439 69.817 -123.3022
516.442874 70.542 103.9385
520.185232 70.922 34.9805
523.954708 70.528 -8.8940
527.751500 69.967 -33.6606
531.575805 69.830 -57.9580
535.427822 69.969 -93.3726
539.307753 70.736 -131.6470
543.215800 71.890 176.6870
547.152165 72.333 87.1890
551.117055 71.699 -5.3325
555.110677 70.418 -76.8340
559.133237 69.665 76.4688
563.184947 69.653 7.4595
567.266018 69.789 -36.2144
571.376661 70.045 -65.7700
575.517092 70.308 -97.1802
579.687526 70.868 -124.2632
583.888181 72.026 -151.5024
588.119275 73.259 172.9771
592.381030 73.630 129.2593
596.673667 72.729 84.2588
600.997410 71.134 43.2500
605.352485 69.797 4.3916
609.739119 69.165 15.8599
614.157540 69.715 151.8022
618.607979 70.517 140.6943
623.090667 71.113 90.4321
627.605839 71.751 44.4297
632.153730 71.666 -1.6382
636.734576 70.620 -39.0869
641.348617 70.115 -84.6318
645.996094 70.516 -151.3262
650.677248 71.009 138.1343
655.392323 71.132 84.4595
660.141566 70.363 141.9946
664.925224 69.679 108.4053
669.743546 70.452 65.7397
674.596784 72.310 9.8145
679.485191 74.234 168.1626
684.409020 75.169 109.9766
689.368530 74.823 66.2725
694.363979 74.156 34.8013
699.395626 73.234 -1.9434
704.463736 71.861 -37.4531
709.568570 70.902 54.1895
714.710396 70.840 36.4995
719.889483 70.709 1.8154
725.106099 71.050 -18.8931
730.360516 72.439 -29.5552
735.653010 73.382 -79.5493
740.983855 73.371 -170.8540
746.353329 73.459 88.5249
751.761713 73.602 19.8623
757.209288 73.150 -24.2861
762.696339 72.481 -9.8833
768.223151 72.676 -15.9004
773.790013 73.749 -44.0400
779.397214 74.875 128.5020
785.045047 75.531 64.5942
790.733808 75.607 7.5488
796.463791 74.645 -44.7432
802.235296 73.115 -84.5229
808.048623 72.637 -131.7524
813.904077 72.540 87.2856
819.801961 71.698 -22.8657
825.742584 70.849 -92.6045
831.726255 71.197 -156.2485
837.753287 72.270 145.9531
843.823992 73.006 94.8760
849.938689 72.939 52.4219
856.097695 72.345 13.3594
862.301332 72.089 -37.0190
868.549922 73.119 -144.8955
874.843793 74.631 122.3066
881.183272 75.355 67.4033
887.568689 75.443 25.3179
894.000378 75.273 -13.5112
900.478673 74.630 -56.9292
907.003913 73.677 24.3003
913.576437 73.068 -1.1831
920.196588 72.309 -46.4692
926.864712 71.194 -20.0854
933.581156 69.925 -7.0918
940.346270 69.411 -46.8535
947.160407 69.570 148.5083
954.023921 70.245 78.8862
960.937172 71.523 46.8857
967.900519 72.159 30.7354
974.914325 72.086 27.4175
981.978956 72.038 5.1362
989.094780 72.478 -25.3545
996.262169 73.212 -71.9531
1003.481495 74.147 172.0132
1010.753136 75.554 74.6470
1018.077470 76.606 23.4365
1025.454879 76.907 -9.3994
1032.885748 76.998 -17.2910
1040.370463 76.504 -46.6133
1047.909417 75.012 -81.4839
1055.503000 73.620 -102.8721
1063.151610 73.337 -20.6128
1070.855645 73.700 -45.5239
1078.615506 74.016 -18.0586
1086.431599 74.243 -1.2573
1094.304330 75.143 -5.5117
1102.234110 76.159 -11.7676
1110.221353 76.216 -47.3315
1118.266475 74.927 -87.0107
1126.369895 72.744 -109.9893
1134.532035 71.703 -86.4038
1142.753322 72.216 -80.1895
1151.034184 72.392 -109.1895
1159.375052 72.483 -14.0347
1167.776361 73.129 -33.7344
1176.238550 73.249 -78.3433
1184.762060 72.189 -109.3164
1193.347334 71.218 -156.8398
1201.994821 71.982 70.4326
1210.704971 73.319 16.1514
1219.478238 73.511 -29.5312
1228.315080 72.326 -60.2959
1237.215957 70.600 -70.7080
1246.181334 69.031 -87.6602
1255.211678 67.873 -97.0557
1264.307459 67.731 -58.6699
1273.469152 67.867 -74.0293
1282.697235 67.622 -93.2158
1291.992188 67.737 -59.9531
1301.354495 68.364 -40.5098
1310.784647 68.978 -11.8584
1320.283132 69.903 -22.6357
1329.850448 70.661 -43.8799
1339.487093 70.952 -63.7441
1349.193569 71.108 -74.9883
1358.970381 71.033 -84.2676
1368.818041 70.990 -98.8027
1378.737061 71.355 -110.7979
1388.727958 72.185 -126.5762
1398.791253 72.350 -151.6875
1408.927471 71.587 -98.8740
1419.137140 71.253 -97.9717
1429.420793 71.620 -129.8604
1439.778965 72.118 -150.0400
1450.212197 72.392 -145.5488
1460.721033 72.316 -88.0371
1471.306019 72.250 -91.1543
1481.967709 71.619 -134.4258
1492.706658 70.711 -173.8994
1503.523426 70.392 155.5098
1514.418576 70.555 92.0908
1525.392678 70.787 -20.8096
1536.446302 71.119 -39.2334
1547.580025 71.666 -59.5996
1558.794428 71.548 -94.1641
1570.090095 70.892 -118.1963
1581.467615 70.752 -126.9639
1592.927581 71.458 -137.4609
1604.470591 71.966 -157.0869
1616.097246 72.161 -166.4424
1627.808153 72.077 -179.1475
1639.603922 71.701 -158.2734
1651.485168 71.384 -177.3799
1663.452510 71.039 174.7676
1675.506573 70.870 -123.2100
1687.647984 70.807 -130.4336
1699.877377 70.763 -157.6924
1712.195390 70.616 170.3916
1724.602663 70.185 137.8574
1737.099845 69.841 112.9707
1749.687587 69.534 100.8564
1762.366544 69.281 119.3359
1775.137379 69.165 100.0791
1788.000756 69.424 69.1436
1800.957346 70.457 -49.5361
1814.007826 71.319 -109.8994
1827.152874 71.334 -139.8584
1840.393177 71.198 -171.1797
1853.729425 71.393 160.9414
1867.162312 71.288 124.1162
1880.692540 70.705 56.4150
1894.320813 69.834 -127.3896
1908.047843 69.282 -169.8027
