* Measurement data measured by REW V5.31
* Source: Scarlett 2i4 USB, MICROPHONE, R, volume: no control. Timing signal peak level -25.0 dBFS, measurement signal peak level -17.5 dBFS
* Format: 512k Log Swept Sine, 1 sweep at -18.0 dBFS using an acoustic timing reference
* Dated: Apr 15, 2024 9:07:39 AM
* REW Settings:
*  C-weighting compensation: Off
*  Target level: 75.0 dB
* Note: ; Delay -0.0011 ms (-0.36 mm, -0.01 in) using estimated IR delay relative to Acoustic reference played from SPEAKER L with no timing offset
* Measurement: empty-p1-l
* Smoothing: 1/48 octave
* Frequency Step: 96 ppo
* Start Frequency: 10.093689 Hz
*
* Freq(Hz) SPL(dB) Phase(degrees)
10.093689 17.111 -58.7727
10.166832 16.797 -64.0358
10.240505 16.411 -69.7056
10.314712 16.004 -75.3957
10.389457 15.530 -80.4404
10.464743 14.714 -84.0602
10.540575 13.228 -87.1296
10.616956 11.408 -89.5529
10.693891 9.735 -90.0886
10.771383 8.734 -85.4025
10.849437 8.618 -67.5063
10.928057 9.184 -29.1886
11.007246 10.204 -0.3253
11.087009 11.524 9.1018
11.167350 13.166 10.1278
11.248273 15.153 8.5902
11.329783 17.192 5.8745
11.411883 18.975 2.3815
11.494578 20.342 -1.9969
11.577873 21.403 -7.1067
11.661771 22.257 -12.3001
11.746277 22.983 -17.3329
11.831395 23.617 -22.4805
11.917130 24.130 -28.2890
12.003487 24.525 -34.1995
12.090469 24.815 -39.8002
12.178081 25.011 -45.3309
12.266329 25.104 -51.5386
12.355216 25.083 -57.8952
12.444747 24.942 -63.8430
12.534926 24.688 -69.8255
12.625760 24.312 -76.5683
12.717251 23.761 -83.5367
12.809406 22.977 -90.0157
12.902228 21.920 -97.1015
12.995723 20.647 -105.5037
13.089895 19.246 -114.9415
13.184750 17.668 -125.4275
13.280292 15.825 -143.1499
13.376526 14.346 175.1327
13.473458 14.264 112.6258
13.571093 16.016 78.6157
13.669434 18.640 62.0847
13.768489 21.090 51.7376
13.868261 22.908 43.1804
13.968756 24.370 35.0937
14.069979 25.599 27.9695
14.171936 26.646 21.6284
14.274632 27.495 15.0532
14.378072 28.176 8.7001
14.482261 28.735 3.0267
14.587206 29.176 -2.6438
14.692910 29.496 -8.3411
14.799381 29.713 -13.4841
14.906624 29.830 -18.2407
15.014643 29.846 -22.9895
15.123446 29.770 -27.2229
15.233036 29.604 -30.7385
15.343421 29.350 -33.9050
15.454606 29.037 -36.4069
15.566596 28.672 -37.8695
15.679398 28.266 -38.3622
15.793018 27.907 -37.9261
15.907460 27.650 -36.3696
16.022732 27.500 -33.6194
16.138840 27.525 -30.5239
16.255788 27.784 -27.4669
16.373585 28.232 -24.5370
16.492234 28.780 -22.5829
16.611744 29.405 -21.6589
16.732119 30.072 -21.5183
16.853367 30.702 -22.1921
16.975494 31.281 -23.6346
17.098505 31.803 -25.5205
17.222408 32.249 -27.6584
17.347209 32.618 -30.1796
17.472914 32.914 -32.7256
17.599530 33.137 -35.1859
17.727063 33.288 -37.6885
17.855521 33.374 -39.8610
17.984909 33.403 -41.7570
18.115235 33.418 -43.3363
18.246506 33.408 -44.3654
18.378727 33.381 -44.8979
18.511907 33.381 -44.9655
18.646052 33.430 -44.4711
18.781169 33.544 -43.5905
18.917265 33.751 -42.6137
19.054347 34.053 -41.4828
19.192423 34.432 -40.6517
19.331499 34.882 -40.1693
19.471583 35.375 -40.0804
19.612682 35.873 -40.5544
19.754804 36.369 -41.4478
19.897956 36.832 -42.6825
20.042144 37.253 -44.2796
20.187378 37.626 -45.9867
20.333664 37.944 -47.7775
20.481010 38.211 -49.5590
20.629424 38.435 -51.1055
20.778913 38.624 -52.4940
20.929486 38.802 -53.5350
21.081150 38.978 -54.2458
21.233912 39.181 -54.7181
21.387782 39.424 -54.8986
21.542767 39.717 -55.0676
21.698874 40.065 -55.2858
21.856113 40.451 -55.7042
22.014492 40.860 -56.5070
22.174018 41.271 -57.6111
22.334700 41.654 -59.1100
22.496546 41.996 -60.8745
22.659566 42.276 -62.7643
22.823766 42.491 -64.7465
22.989157 42.638 -66.4869
23.155745 42.725 -68.0289
23.323542 42.776 -69.0212
23.492554 42.810 -69.5142
23.662790 42.878 -69.3972
23.834261 43.002 -68.7482
24.006973 43.224 -67.8762
24.180938 43.543 -66.8998
24.356163 43.946 -66.3022
24.532658 44.405 -66.0694
24.710431 44.872 -66.4194
24.889493 45.322 -67.1472
25.069853 45.724 -68.1743
25.251519 46.079 -69.2233
25.434502 46.389 -70.1224
25.618811 46.690 -70.6812
25.804456 47.011 -70.7903
25.991445 47.407 -70.6210
26.179790 47.902 -70.2405
26.369500 48.510 -70.2140
26.560584 49.209 -70.6558
26.753053 49.954 -71.9885
26.946917 50.700 -74.1276
27.142185 51.401 -77.1213
27.338869 52.023 -80.6903
27.536977 52.547 -84.7646
27.736522 52.965 -88.9747
27.937512 53.280 -93.2020
28.139959 53.503 -97.2075
28.343872 53.665 -100.7903
28.549264 53.791 -103.9026
28.756143 53.932 -106.4835
28.964522 54.118 -108.7378
29.174411 54.374 -110.7968
29.385821 54.696 -113.1261
29.598763 55.062 -115.8193
29.813248 55.428 -119.1716
30.029287 55.747 -123.0591
30.246891 55.983 -127.4812
30.466073 56.102 -132.1521
30.686842 56.087 -136.7855
30.909212 55.933 -141.2197
31.133193 55.653 -144.8930
31.358797 55.282 -147.6077
31.586035 54.876 -148.9918
31.814921 54.538 -148.9434
32.045465 54.360 -147.8180
32.277680 54.401 -146.0889
32.511577 54.655 -144.7776
32.747169 55.040 -144.3472
32.984469 55.472 -144.9071
33.223488 55.870 -146.3384
33.464239 56.200 -148.1592
33.706735 56.461 -150.0586
33.950987 56.677 -151.7324
34.197010 56.899 -152.9457
34.444816 57.177 -153.8112
34.694417 57.550 -154.5354
34.945827 58.031 -155.4479
35.199059 58.598 -157.0115
35.454126 59.208 -159.4234
35.711041 59.814 -162.7330
35.969818 60.374 -166.9282
36.230470 60.852 -171.8770
36.493011 61.227 -177.3845
36.757455 61.482 176.7048
37.023814 61.608 170.5300
37.292104 61.597 164.2802
37.562338 61.445 158.1983
37.834530 61.156 152.4739
38.108695 60.738 147.3195
38.384846 60.213 142.9896
38.662999 59.618 139.7458
38.943167 59.015 137.6943
39.225365 58.474 136.6926
39.509608 58.047 136.3520
39.795911 57.745 136.1121
40.084289 57.528 135.4546
40.374756 57.317 134.1381
40.667328 57.027 132.3179
40.962020 56.594 130.4728
41.258848 55.996 129.2247
41.557827 55.249 129.2709
41.858972 54.421 131.3276
42.162299 53.635 136.0264
42.467824 53.082 143.7629
42.775564 53.019 154.4503
43.085533 53.694 166.8571
43.397749 55.148 178.0183
43.712227 57.094 -175.1522
44.028983 59.154 -173.5452
44.348036 61.076 -176.2751
44.669400 62.736 177.9247
44.993093 64.089 170.1193
45.319131 65.123 161.1167
45.647532 65.847 151.5424
45.978313 66.281 141.9092
46.311491 66.457 132.6589
46.647083 66.415 124.1705
46.985107 66.213 116.7348
47.325581 65.919 110.4968
47.668521 65.600 105.3994
48.013947 65.306 101.1905
48.361876 65.057 97.5349
48.712326 64.845 94.1794
49.065315 64.647 91.0586
49.420863 64.455 88.2850
49.778987 64.281 86.0534
50.139706 64.171 84.4924
50.503039 64.184 83.4932
50.869005 64.367 82.6029
51.237623 64.714 81.1573
51.608912 65.159 78.6591
51.982891 65.614 75.0774
52.359580 66.028 70.8107
52.739000 66.418 66.3709
53.121168 66.864 61.9363
53.506106 67.441 57.0171
53.893833 68.140 50.6626
54.284370 68.849 42.0697
54.677737 69.413 31.0433
55.073955 69.693 17.9555
55.473043 69.593 3.4739
55.875024 69.050 -11.6188
56.279917 68.022 -26.5561
56.687745 66.486 -40.2850
57.098527 64.452 -51.3790
57.512287 62.013 -58.1346
57.929045 59.402 -59.3967
58.348822 56.950 -56.3975
58.771642 54.808 -52.5042
59.197525 52.819 -47.7047
59.626495 50.964 -37.9106
60.058573 49.734 -21.6569
60.493782 49.497 -6.7680
60.932145 49.832 2.5616
61.373685 50.337 9.5873
61.818424 51.025 16.6289
62.266386 51.963 22.9530
62.717593 53.076 27.4257
63.172071 54.266 30.0665
63.629842 55.488 31.2880
64.090930 56.719 31.3262
64.555359 57.946 30.3676
65.023154 59.170 28.6515
65.494339 60.415 26.3910
65.968938 61.723 23.7565
66.446976 63.154 20.8364
66.928478 64.757 17.1967
67.413469 66.495 11.7673
67.901975 68.221 3.6281
68.394021 69.753 -7.4214
68.889632 70.959 -20.6708
69.388835 71.774 -35.0115
69.891655 72.198 -49.4672
70.398118 72.290 -62.9283
70.908252 72.160 -74.7987
71.422083 71.945 -84.8472
71.939636 71.755 -93.4666
72.460941 71.630 -101.2816
72.986023 71.564 -108.5948
73.514909 71.561 -115.3856
74.047629 71.666 -121.7297
74.584208 71.916 -128.1316
75.124676 72.281 -135.4417
75.669061 72.654 -144.2463
76.217390 72.902 -154.6357
76.769692 72.906 -166.1858
77.325997 72.586 -178.2380
77.886333 71.897 170.1993
78.450730 70.844 160.1877
79.019216 69.499 152.9884
79.591822 68.041 149.5166
80.168577 66.724 149.3566
80.749512 65.723 150.3621
81.334656 64.956 150.3954
81.924040 64.167 149.4080
82.517696 63.158 149.3096
83.115653 62.033 154.1636
83.717943 61.581 169.9481
84.324598 62.815 -167.8196
84.935649 65.207 -155.8186
85.551128 67.713 -154.6709
86.171066 69.931 -159.3373
86.795497 71.818 -166.9504
87.424453 73.425 -176.2058
88.057967 74.787 173.1541
88.696071 75.869 160.9956
89.338800 76.595 147.6299
89.986185 76.923 134.0356
90.638262 76.909 121.4420
91.295065 76.704 110.8010
91.956626 76.549 102.3921
92.622982 76.698 95.0828
93.294166 77.185 85.7512
93.970214 77.662 71.6975
94.651161 77.649 53.2990
95.337042 76.816 33.2900
96.027894 75.050 15.8597
96.723752 72.526 6.6149
97.424652 69.908 7.4076
98.130631 67.960 8.1090
98.841726 66.539 4.1680
99.557974 65.173 -0.2720
100.279412 63.750 -3.9846
101.006078 62.226 -7.3932
101.738010 60.582 -9.5074
102.475245 58.898 -10.4952
103.217823 57.183 -10.7341
103.965782 55.514 -8.1296
104.719161 54.241 -3.9005
105.477999 53.506 -4.2887
106.242336 53.004 -11.0189
107.012212 52.619 -22.4312
107.787666 52.758 -38.3470
108.568740 54.009 -58.4874
109.355474 56.481 -79.0292
110.147909 59.617 -97.4042
110.946086 62.673 -116.1660
111.750047 65.161 -137.0404
112.559834 66.912 -158.7395
113.375489 67.968 -179.1829
114.197055 68.497 162.9924
115.024574 68.683 147.8798
115.858089 68.627 134.8632
116.697645 68.373 123.5728
117.543284 67.950 113.7413
118.395051 67.339 104.9122
119.252990 66.469 97.5503
120.117147 65.340 93.2285
120.987565 64.107 93.3195
121.864291 63.098 98.6423
122.747370 62.892 109.7107
123.636848 63.991 123.2283
124.532771 66.023 130.7598
125.435187 68.141 128.3323
126.344142 69.778 118.0474
127.259684 70.667 103.1650
128.181860 70.676 86.8020
129.110718 69.799 72.9808
130.046308 68.328 67.5841
130.988677 67.093 72.8904
131.937875 66.661 75.8549
132.893951 66.370 71.0818
133.856956 65.688 67.5085
134.826938 65.374 78.2982
135.803950 66.614 97.1058
136.788041 68.516 96.3179
137.779264 69.820 82.8794
138.777669 70.107 64.5480
139.783309 69.212 45.3682
140.796237 67.205 32.7319
141.816504 65.372 64.1233
142.844165 66.275 118.1086
143.879273 68.619 114.7881
144.921881 70.405 101.4808
145.972045 71.293 86.4047
147.029819 71.379 72.5991
148.095257 70.833 62.1448
149.168417 69.924 57.0680
150.249353 69.056 57.7334
151.338121 68.591 61.3590
152.434780 68.670 65.6694
153.539385 69.401 71.4891
154.651995 70.832 76.7474
155.772667 72.634 76.3881
156.901460 74.415 70.5347
158.038432 75.916 59.8428
159.183644 76.808 43.7869
160.337154 76.807 25.2974
161.499023 75.939 9.7347
162.669312 74.569 0.0002
163.848081 73.157 -5.0450
165.035392 72.068 -7.5668
166.231306 71.298 -13.5149
167.435887 70.201 -24.7573
168.649196 68.242 -31.1279
169.871298 65.880 -17.4464
171.102255 64.672 6.8560
172.342133 65.229 18.3589
173.590995 66.506 21.2972
174.848907 67.995 22.4954
176.115934 69.471 18.7830
177.392143 70.501 7.7222
178.677599 70.792 -7.4056
179.972371 70.258 -23.6616
181.276525 68.908 -38.9641
182.590129 67.120 -44.6011
183.913252 66.575 4.0043
185.245964 68.014 18.9779
186.588332 69.472 3.6182
187.940428 70.265 -12.9200
189.302322 70.797 -26.7532
190.674085 71.008 -46.1793
192.055788 70.140 -71.0519
193.447503 68.011 -85.0071
194.849303 66.114 -53.6127
196.261262 66.570 -43.2812
197.683452 67.893 -63.8177
199.115948 68.642 -91.7665
200.558824 68.770 -122.3260
202.012156 68.321 -154.9568
203.476019 67.235 176.4663
204.950490 66.292 163.6787
206.435646 66.920 155.8997
207.931564 68.807 144.6012
209.438322 70.582 126.0239
210.955998 71.200 99.9760
212.484672 70.523 78.0778
214.024424 69.303 67.0369
215.575333 68.801 66.6016
217.137481 69.772 73.7528
218.710948 71.050 63.1416
220.295818 71.209 39.6630
221.892172 69.933 21.6162
223.500094 68.337 23.6144
225.119668 69.378 34.1431
226.750978 72.876 134.8027
228.394109 75.922 118.6514
230.049147 77.410 85.5781
231.716178 77.241 55.2472
233.395289 75.895 37.6770
235.086567 74.478 35.5348
236.790102 74.139 36.1115
238.505980 75.059 36.1272
240.234293 76.596 32.3018
241.975130 77.482 14.5287
243.728581 76.800 -6.9020
245.494739 74.936 -6.8080
247.273695 74.188 24.4535
249.065542 75.791 34.1055
250.870374 77.628 22.9810
252.688284 78.546 4.4531
254.519367 78.817 -10.5770
256.363720 79.578 -13.9669
258.221437 80.916 -19.1119
260.092616 81.325 -42.6749
261.977354 80.001 -63.8710
263.875750 77.541 -58.9768
265.787903 75.526 -49.4835
267.713911 75.340 -43.0657
269.653877 76.225 -50.1399
271.607900 76.636 -68.7278
273.576083 75.929 -90.7073
275.558528 74.126 -103.4600
277.555338 72.367 -74.4399
279.566619 72.081 -63.7361
281.592474 72.551 -75.7285
283.633009 73.034 -91.6699
285.688331 72.960 -117.9319
287.758546 71.794 -156.3931
289.843763 70.200 118.8213
291.944090 69.980 30.1411
294.059638 71.445 2.5576
296.190515 73.430 -13.5581
298.336833 75.032 -31.6880
300.498705 75.923 -51.6011
302.676243 76.093 -71.6072
304.869559 75.584 -90.8406
307.078770 75.212 -86.5735
309.303989 76.398 -57.8557
311.545334 78.189 -72.0549
313.802919 79.374 -97.3020
316.076865 79.496 -126.3665
318.367288 78.206 -150.3877
320.674309 75.811 -153.7817
322.998047 73.402 -153.2000
325.338624 72.179 -132.5916
327.696162 72.518 -125.9724
330.070783 73.789 -131.0442
332.462612 75.526 -138.6355
334.871773 76.767 -159.5164
337.298392 76.934 172.5701
339.742595 75.942 143.7949
342.204510 73.776 124.2478
344.684265 71.237 135.5176
347.181989 70.664 161.4822
349.697813 72.278 165.7722
352.231868 73.662 142.9729
354.784285 73.994 115.5125
357.355198 73.532 93.0161
359.944741 72.754 73.2417
362.553049 71.721 51.9844
365.180258 70.592 30.9290
367.826505 69.826 10.5942
370.491927 69.772 35.8062
373.176665 69.912 62.6196
375.880856 69.390 38.6768
378.604644 69.223 38.3674
381.348169 70.676 46.2866
384.111575 71.847 29.7021
386.895006 71.480 3.2842
389.698607 70.070 -17.8335
392.522524 68.675 -23.8621
395.366904 69.323 9.6123
398.231895 71.970 15.6345
401.117648 74.425 -4.8958
404.024312 75.519 -37.3262
406.952038 74.847 -70.0500
409.900981 73.088 -71.5657
412.871292 72.069 -56.3623
415.863128 72.837 -59.2002
418.876643 74.025 -72.5728
421.911996 74.203 -100.4512
424.969344 73.304 -127.2966
428.048847 71.776 -142.4556
431.150666 70.564 -129.2805
434.274961 70.919 -124.4734
437.421897 72.433 -129.9631
440.591636 73.380 -157.7417
443.784345 73.136 166.4531
447.000189 71.927 126.4514
450.239337 70.294 69.8306
453.501956 70.304 -93.1069
456.788219 72.639 -130.8384
460.098294 75.351 -161.4226
463.432356 77.365 164.2900
466.790578 78.074 123.0186
470.173135 77.445 81.1301
473.580203 75.603 42.2727
477.011961 72.573 21.6643
480.468586 68.927 41.5913
483.950259 66.506 54.1685
487.457163 67.555 82.0486
490.989478 69.851 69.8926
494.547390 70.928 38.4519
498.131084 70.703 10.6494
501.740748 70.515 -4.5859
505.376568 70.868 -26.3994
509.038735 70.552 -51.8044
512.727439 69.450 -46.7634
516.442874 68.944 -62.1025
520.185232 69.609 -102.4792
523.954708 70.779 -163.7231
527.751500 71.449 117.7964
531.575805 71.112 52.1111
535.427822 70.066 5.8755
539.307753 68.999 -29.3396
543.215800 68.266 -50.6199
547.152165 68.408 -55.3921
551.117055 69.881 -60.7280
555.110677 71.773 -19.5508
559.133237 73.169 -41.1833
563.184947 74.050 -75.4946
567.266018 74.390 -112.3738
571.376661 73.739 -152.7449
575.517092 72.146 171.3308
579.687526 70.161 165.1340
583.888181 68.544 178.3604
588.119275 67.597 168.9292
592.381030 66.719 151.2188
596.673667 65.356 137.2883
600.997410 64.697 129.5977
605.352485 66.028 138.6155
609.739119 68.137 133.0825
614.157540 69.440 107.4536
618.607979 70.360 93.0652
623.090667 71.704 94.3618
627.605839 72.924 72.7500
632.153730 74.245 49.5991
636.734576 75.841 19.8643
641.348617 76.653 -23.7285
645.996094 76.181 -69.4668
650.677248 74.791 -107.0581
655.392323 73.338 -139.4990
660.141566 72.322 -145.5122
664.925224 72.541 -155.7026
669.743546 74.506 173.6802
674.596784 76.621 134.5547
679.485191 78.029 92.1157
684.409020 78.612 47.4780
689.368530 77.828 1.3896
694.363979 75.415 -32.4282
699.395626 72.343 -43.7695
704.463736 70.566 -60.7271
709.568570 70.234 -90.4297
714.710396 70.206 -120.3604
719.889483 70.327 121.2915
725.106099 70.593 42.6250
730.360516 71.028 -28.1479
735.653010 71.392 -125.3701
740.983855 72.440 165.6147
746.353329 73.885 147.4082
751.761713 74.818 97.2207
757.209288 74.946 50.9346
762.696339 73.919 22.1719
768.223151 72.472 23.0830
773.790013 71.522 -6.1992
779.397214 70.943 -43.0039
785.045047 70.642 -104.5654
790.733808 71.055 58.2227
796.463791 71.422 8.3638
802.235296 70.952 82.7104
808.048623 71.207 55.0479
813.904077 72.615 12.9126
819.801961 73.996 -20.4150
825.742584 74.490 -58.2822
831.726255 74.348 -111.3716
837.753287 74.114 179.3398
843.823992 73.727 112.9009
849.938689 72.983 70.1831
856.097695 72.539 139.9531
862.301332 73.154 112.5010
868.549922 73.614 72.9893
874.843793 73.515 39.4736
881.183272 73.746 31.6787
887.568689 74.606 41.6846
894.000378 74.788 23.1201
900.478673 74.576 14.3618
907.003913 75.392 -2.2754
913.576437 76.404 -42.1777
920.196588 76.147 -108.6343
926.864712 74.713 129.5747
933.581156 72.936 65.4985
940.346270 72.243 53.5347
947.160407 72.369 30.2651
954.023921 71.920 -1.3574
960.937172 70.967 -20.5503
967.900519 71.399 10.7725
974.914325 73.668 47.7651
981.978956 75.205 22.6030
989.094780 75.043 -12.0786
996.262169 73.850 -38.8125
1003.481495 73.248 -20.1699
1010.753136 74.057 11.7559
1018.077470 74.324 -13.8545
1025.454879 73.628 -35.4126
1032.885748 73.235 -47.6587
1040.370463 73.129 -66.0415
1047.909417 72.734 -82.9307
1055.503000 72.216 -90.2598
1063.151610 71.459 -73.7393
1070.855645 70.994 -45.6211
1078.615506 71.651 -52.9819
1086.431599 72.734 -52.2275
1094.304330 73.607 -33.5288
1102.234110 74.683 -19.6987
1110.221353 75.976 -57.3721
1118.266475 76.652 -107.4722
1126.369895 76.052 -164.8325
1134.532035 74.510 129.7725
1142.753322 73.234 48.2808
1151.034184 72.320 -14.0371
1159.375052 71.545 -45.1387
1167.776361 71.062 -68.4268
1176.238550 70.699 -86.0142
1184.762060 70.755 -18.7725
1193.347334 71.070 -58.5156
1201.994821 70.912 -46.2441
1210.704971 70.245 -15.3989
1219.478238 69.721 -51.0264
1228.315080 69.407 -80.0039
1237.215957 68.811 -104.4585
1246.181334 67.678 18.0952
1255.211678 67.267 0.7671
1264.307459 68.140 -21.2217
1273.469152 69.139 -13.3315
1282.697235 69.657 -26.1748
1291.992188 70.071 -33.8169
1301.354495 70.777 -50.1367
1310.784647 71.063 -65.8237
1320.283132 71.221 -36.9404
1329.850448 70.780 -60.9546
1339.487093 69.308 -81.8506
1349.193569 68.451 -53.7290
1358.970381 69.341 -43.1724
1368.818041 70.220 -64.1499
1378.737061 70.429 -85.5674
1388.727958 69.850 -100.3521
1398.791253 69.178 -89.4790
1408.927471 69.100 -90.5825
1419.137140 69.402 -99.9966
1429.420793 70.092 -110.0405
1439.778965 70.601 -125.3423
1450.212197 70.713 -143.8555
1460.721033 71.072 -154.7178
1471.306019 71.153 -135.6221
1481.967709 70.324 -70.8335
1492.706658 69.681 -88.0464
1503.523426 69.883 -114.1133
1514.418576 70.530 -120.9341
1525.392678 71.137 -79.4883
1536.446302 71.427 -93.0601
1547.580025 71.430 -58.9512
1558.794428 71.057 -71.8247
1570.090095 70.926 -89.2998
1581.467615 71.098 -112.2480
1592.927581 71.103 -129.0742
1604.470591 71.461 -119.1431
1616.097246 72.006 -130.9307
1627.808153 72.383 -137.2739
1639.603922 72.808 -147.4854
1651.485168 72.128 -172.6304
1663.452510 70.429 171.9570
1675.506573 69.334 157.5264
1687.647984 69.849 154.5254
1699.877377 71.525 -116.7061
1712.195390 72.660 -146.8774
1724.602663 73.142 -171.6685
1737.099845 73.412 162.6113
1749.687587 73.020 136.2573
1762.366544 72.531 117.3726
1775.137379 72.334 98.1094
1788.000756 72.082 100.1816
1800.957346 72.143 52.6040
1814.007826 72.333 -56.8848
1827.152874 72.674 -151.8501
1840.393177 72.510 153.9463
1853.729425 72.080 -157.1299
1867.162312 72.084 -163.0811
1880.692540 71.903 161.8545
1894.320813 71.702 124.2876
1908.047843 72.082 103.7715
1921.874344 72.676 104.2710
1935.801038 72.545 94.8472
