* Measurement data measured by REW V5.31
* Source: Scarlett 2i4 USB, MICROPHONE, R, volume: no control. Timing signal peak level -24.7 dBFS, measurement signal peak level -17.0 dBFS
* Format: 512k Log Swept Sine, 1 sweep at -18.0 dBFS using an acoustic timing reference
* Dated: Apr 15, 2024 9:29:24 AM
* REW Settings:
*  C-weighting compensation: Off
*  Target level: 75.0 dB
* Note: ; Delay -0.0153 ms (-5.3 mm, -0.21 in) using estimated IR delay relative to Acoustic reference played from SPEAKER L with no timing offset
* Measurement: empty-p2-l
* Smoothing: 1/48 octave
* Frequency Step: 96 ppo
* Start Frequency: 10.093689 Hz
*
* Freq(Hz) SPL(dB) Phase(degrees)
10.093689 20.629 83.4451
10.166832 20.873 78.3609
10.240505 21.169 73.1372
10.314712 21.472 67.9865
10.389457 21.765 63.1050
10.464743 22.004 58.5772
10.540575 22.155 53.9236
10.616956 22.251 49.1653
10.693891 22.307 44.4774
10.771383 22.331 40.0612
10.849437 22.321 35.7402
10.928057 22.275 31.3120
11.007246 22.201 26.8835
11.087009 22.109 22.6188
11.167350 22.002 18.5757
11.248273 21.874 14.5385
11.329783 21.732 10.5358
11.411883 21.589 6.6641
11.494578 21.449 3.0286
11.577873 21.306 -0.4545
11.661771 21.167 -3.8095
11.746277 21.043 -7.0106
11.831395 20.940 -9.9891
11.917130 20.854 -12.7163
12.003487 20.789 -15.2368
12.090469 20.753 -17.5821
12.178081 20.748 -19.7245
12.266329 20.775 -21.5971
12.355216 20.833 -23.2586
12.444747 20.925 -24.7701
12.534926 21.053 -26.1007
12.625760 21.215 -27.2148
12.717251 21.411 -28.1891
12.809406 21.640 -29.0903
12.902228 21.903 -29.8435
12.995723 22.200 -30.4917
13.089895 22.525 -31.1367
13.184750 22.877 -31.8114
13.280292 23.259 -32.4291
13.376526 23.662 -33.0979
13.473458 24.078 -33.9246
13.571093 24.507 -34.8410
13.669434 24.946 -35.8374
13.768489 25.380 -36.9909
13.868261 25.802 -38.3438
13.968756 26.214 -39.8298
14.069979 26.605 -41.4215
14.171936 26.964 -43.1291
14.274632 27.290 -45.0137
14.378072 27.580 -46.9619
14.482261 27.822 -48.8624
14.587206 28.016 -50.8471
14.692910 28.160 -52.8540
14.799381 28.248 -54.6630
14.906624 28.277 -56.3099
15.014643 28.249 -57.8591
15.123446 28.169 -59.0455
15.233036 28.034 -59.7499
15.343421 27.851 -60.0624
15.454606 27.652 -59.7886
15.566596 27.453 -58.7387
15.679398 27.260 -56.9203
15.793018 27.144 -54.4492
15.907460 27.150 -51.3578
16.022732 27.273 -47.7203
16.138840 27.529 -44.1656
16.255788 27.936 -40.9600
16.373585 28.466 -38.1430
16.492234 29.048 -36.1480
16.611744 29.662 -34.9570
16.732119 30.289 -34.4018
16.853367 30.881 -34.4708
16.975494 31.428 -35.1161
17.098505 31.926 -36.1296
17.222408 32.365 -37.3723
17.347209 32.742 -38.9070
17.472914 33.064 -40.5047
17.599530 33.330 -42.0805
17.727063 33.545 -43.7025
17.855521 33.721 -45.1577
17.984909 33.858 -46.4662
18.115235 33.971 -47.6241
18.246506 34.074 -48.5320
18.378727 34.169 -49.2205
18.511907 34.276 -49.7499
18.646052 34.404 -50.0860
18.781169 34.556 -50.3122
18.917265 34.739 -50.5705
19.054347 34.955 -50.8117
19.192423 35.194 -51.2070
19.331499 35.453 -51.7820
19.471583 35.722 -52.5274
19.612682 35.985 -53.5100
19.754804 36.239 -54.6877
19.897956 36.470 -55.9716
20.042144 36.672 -57.4078
20.187378 36.845 -58.8230
20.333664 36.983 -60.1816
20.481010 37.095 -61.4342
20.629424 37.189 -62.4040
20.778913 37.273 -63.1401
20.929486 37.374 -63.5498
21.081150 37.500 -63.6209
21.233912 37.678 -63.5301
21.387782 37.921 -63.2401
21.542767 38.226 -63.0514
21.698874 38.595 -63.0496
21.856113 39.005 -63.3457
22.014492 39.433 -64.1047
22.174018 39.859 -65.2079
22.334700 40.250 -66.6950
22.496546 40.599 -68.4339
22.659566 40.885 -70.2305
22.823766 41.109 -72.0616
22.989157 41.276 -73.5666
23.155745 41.397 -74.7940
23.323542 41.505 -75.4270
23.492554 41.623 -75.5306
23.662790 41.807 -75.1212
23.834261 42.073 -74.3118
24.006973 42.448 -73.5509
24.180938 42.919 -72.9333
24.356163 43.451 -72.9391
24.532658 44.010 -73.4600
24.710431 44.543 -74.6372
24.889493 45.026 -76.2021
25.069853 45.431 -78.0320
25.251519 45.761 -79.8086
25.434502 46.020 -81.3388
25.618811 46.247 -82.3636
25.804456 46.477 -82.7401
25.991445 46.781 -82.5822
26.179790 47.196 -81.9625
26.369500 47.754 -81.5391
26.560584 48.436 -81.5202
26.753053 49.192 -82.4705
26.946917 49.964 -84.3484
27.142185 50.697 -87.2284
27.338869 51.344 -90.8024
27.536977 51.883 -94.9819
27.736522 52.300 -99.3407
27.937512 52.598 -103.7290
28.139959 52.788 -107.8606
28.343872 52.906 -111.4682
28.549264 52.983 -114.4754
28.756143 53.087 -116.7755
28.964522 53.260 -118.6320
29.174411 53.543 -120.2178
29.385821 53.931 -122.1972
29.598763 54.393 -124.7035
29.813248 54.869 -128.1402
30.029287 55.299 -132.3483
30.246891 55.637 -137.3105
30.466073 55.840 -142.7043
30.686842 55.890 -148.1867
30.909212 55.776 -153.6178
31.133193 55.503 -158.3442
31.358797 55.101 -162.1330
31.586035 54.617 -164.5240
31.814921 54.160 -165.1793
32.045465 53.851 -164.3177
32.277680 53.786 -162.3130
32.511577 54.005 -160.4052
32.747169 54.424 -159.3648
32.984469 54.948 -159.4713
33.223488 55.469 -160.6944
33.464239 55.938 -162.5330
33.706735 56.347 -164.6469
33.950987 56.715 -166.7283
34.197010 57.084 -168.5470
34.444816 57.496 -170.1857
34.694417 57.979 -171.7874
34.945827 58.544 -173.5769
35.199059 59.179 -175.8861
35.454126 59.855 -178.8690
35.711041 60.543 177.4156
35.969818 61.213 172.9436
36.230470 61.837 167.7432
36.493011 62.395 161.9261
36.757455 62.868 155.6056
37.023814 63.243 148.8845
37.292104 63.507 141.9197
37.562338 63.658 134.9572
37.834530 63.699 128.1879
38.108695 63.647 121.7896
38.384846 63.528 115.9409
38.662999 63.381 110.7804
38.943167 63.250 106.2943
39.225365 63.171 102.3342
39.509608 63.162 98.7227
39.795911 63.226 95.3041
40.084289 63.360 91.9872
40.374756 63.567 88.7550
40.667328 63.863 85.5767
40.962020 64.266 82.2814
41.258848 64.777 78.5909
41.557827 65.365 74.2648
41.858972 65.983 69.2336
42.162299 66.592 63.6327
42.467824 67.178 57.7461
42.775564 67.767 51.8778
43.085533 68.420 46.1659
43.397749 69.201 40.4036
43.712227 70.132 34.0261
44.028983 71.165 26.4088
44.348036 72.208 17.2024
44.669400 73.165 6.4222
44.993093 73.960 -5.6581
45.319131 74.544 -18.6460
45.647532 74.887 -32.1093
45.978313 74.977 -45.6052
46.311491 74.816 -58.6783
46.647083 74.422 -70.8556
46.985107 73.835 -81.6573
47.325581 73.128 -90.6617
47.668521 72.405 -97.6484
48.013947 71.789 -102.7913
48.361876 71.368 -106.7154
48.712326 71.157 -110.2330
49.065315 71.101 -113.9231
49.420863 71.127 -117.9379
49.778987 71.181 -122.1042
50.139706 71.249 -126.1188
50.503039 71.357 -129.7291
50.869005 71.553 -132.9032
51.237623 71.883 -135.9479
51.608912 72.342 -139.3893
51.982891 72.870 -143.5936
52.359580 73.399 -148.4561
52.739000 73.915 -153.4642
53.121168 74.490 -158.1380
53.506106 75.247 -162.6531
53.893833 76.241 -168.0512
54.284370 77.378 -175.6240
54.677737 78.469 173.9996
55.073955 79.338 161.0604
55.473043 79.869 146.2726
55.875024 79.999 130.4775
56.279917 79.698 114.4106
56.687745 78.959 98.9398
57.098527 77.808 85.0763
57.512287 76.326 73.8676
57.929045 74.685 66.0383
58.348822 73.121 61.3423
58.771642 71.812 58.0724
59.197525 70.715 54.6447
59.626495 69.671 51.1215
60.058573 68.616 48.5511
60.493782 67.648 47.4695
60.932145 66.883 46.9877
61.373685 66.291 45.9124
61.818424 65.738 44.1760
62.266386 65.162 42.7061
62.717593 64.624 42.1255
63.172071 64.209 42.1830
63.629842 63.944 42.4629
64.090930 63.853 43.1931
64.555359 64.052 44.4857
65.023154 64.632 45.0746
65.494339 65.486 43.2748
65.968938 66.403 38.6682
66.446976 67.267 32.0994
66.928478 68.098 24.3750
67.413469 68.955 15.5148
67.901975 69.830 4.9733
68.394021 70.627 -7.6759
68.889632 71.231 -22.2430
69.388835 71.564 -37.9412
69.891655 71.609 -53.9867
70.398118 71.412 -69.3929
70.908252 71.063 -83.6358
71.422083 70.678 -96.4728
71.939636 70.344 -108.1301
72.460941 70.097 -118.9619
72.986023 69.938 -129.1089
73.514909 69.885 -138.5048
74.047629 69.998 -147.2012
74.584208 70.338 -155.6731
75.124676 70.901 -164.9407
75.669061 71.576 -175.9407
76.217390 72.191 170.8699
76.769692 72.588 155.8110
77.325997 72.660 139.5305
77.886333 72.369 123.0238
78.450730 71.745 107.0217
79.019216 70.872 91.9250
79.591822 69.866 77.3669
80.168577 68.785 62.2129
80.749512 67.595 45.1619
81.334656 66.201 25.2072
81.924040 64.567 1.4246
82.517696 62.844 -27.5652
83.115653 61.472 -61.5205
83.717943 61.005 -94.3391
84.324598 61.540 -119.5310
84.935649 62.706 -137.2328
85.551128 64.160 -150.3966
86.171066 65.692 -161.7189
86.795497 67.164 -172.7866
87.424453 68.510 175.8665
88.057967 69.702 163.9225
88.696071 70.676 150.9486
89.338800 71.331 136.9900
89.986185 71.604 122.9323
90.638262 71.554 110.0100
91.295065 71.354 98.8811
91.956626 71.212 89.1200
92.622982 71.298 79.4686
93.294166 71.680 67.6226
93.970214 72.174 50.5774
94.651161 72.378 26.7635
95.337042 71.937 -3.7476
96.027894 70.688 -41.3528
96.723752 68.676 -89.6707
97.424652 66.118 -153.2581
98.130631 63.310 148.6848
98.841726 60.489 114.4614
99.557974 57.910 98.3477
100.279412 55.763 93.0564
101.006078 53.967 95.3860
101.738010 52.676 106.0223
102.475245 52.510 123.2344
103.217823 54.034 145.6082
103.965782 56.802 163.2798
104.719161 59.754 168.0955
105.477999 62.249 162.8152
106.242336 64.046 151.9368
107.012212 65.137 139.3264
107.787666 65.669 127.5857
108.568740 65.834 117.4641
109.355474 65.696 108.1268
110.147909 65.162 99.6206
110.946086 64.239 95.1534
111.750047 63.424 99.3505
112.559834 63.458 107.9506
113.375489 64.187 110.5432
114.197055 64.948 107.8297
115.024574 65.491 103.4924
115.858089 65.832 98.8732
116.697645 66.011 94.0665
117.543284 66.008 88.7220
118.395051 65.724 82.8706
119.252990 65.074 78.1183
120.117147 64.164 77.4924
120.987565 63.442 83.3804
121.864291 63.506 93.2272
122.747370 64.513 101.2961
123.636848 66.131 104.9930
124.532771 67.942 103.0072
125.435187 69.584 94.8661
126.344142 70.811 81.4452
127.259684 71.463 63.8547
128.181860 71.421 43.0350
129.110718 70.636 19.6932
130.046308 69.224 -7.3438
130.988677 67.685 -45.7513
131.937875 67.087 -111.7627
132.893951 67.954 -170.6636
133.856956 69.394 156.0884
134.826938 70.662 133.4563
135.803950 71.599 115.8325
136.788041 72.225 100.7036
137.779264 72.517 86.2991
138.777669 72.340 71.6494
139.783309 71.503 58.0137
140.796237 70.039 51.3345
141.816504 68.822 60.4939
142.844165 69.170 74.6731
143.879273 70.570 75.5276
144.921881 71.769 66.4109
145.972045 72.290 53.4036
147.029819 72.079 39.7197
148.095257 71.110 27.1633
149.168417 69.406 20.1614
150.249353 67.545 28.1045
151.338121 67.113 52.4016
152.434780 68.602 66.3611
153.539385 70.599 66.2422
154.651995 72.363 60.0845
155.772667 73.815 51.1653
156.901460 75.015 40.4768
158.038432 75.968 27.5366
159.183644 76.484 10.8672
160.337154 76.247 -8.4927
161.499023 75.120 -25.6438
162.669312 73.417 -35.0620
163.848081 71.932 -37.3467
165.035392 71.306 -41.0801
166.231306 71.133 -53.2092
167.435887 70.451 -72.4983
168.649196 68.709 -91.6689
169.871298 65.968 -103.7876
171.102255 62.687 -110.8315
172.342133 59.425 -116.9631
173.590995 57.294 -93.6108
174.848907 57.557 -74.1140
176.115934 58.547 -105.0728
177.392143 58.886 -148.4224
178.677599 58.741 171.0515
179.972371 59.267 154.9438
181.276525 61.382 175.9905
182.590129 63.741 163.4109
183.913252 65.486 142.6062
185.245964 67.274 130.2205
186.588332 69.803 124.9551
187.940428 72.668 115.2493
189.302322 75.175 96.8340
190.674085 76.811 70.0076
192.055788 77.123 37.2705
193.447503 75.872 5.2930
194.849303 73.180 -18.8350
196.261262 69.384 -31.3042
197.683452 65.052 -13.0576
199.115948 62.217 53.6338
200.558824 63.473 72.1328
202.012156 66.669 80.2534
203.476019 69.785 75.3801
204.950490 72.298 59.5964
206.435646 74.206 37.3459
207.931564 75.625 9.2266
209.438322 76.410 -28.4453
210.955998 76.385 -78.7532
212.484672 75.643 -144.6619
214.024424 74.477 148.2844
215.575333 73.051 100.4214
217.137481 71.678 75.7722
218.710948 71.923 89.1504
220.295818 73.900 91.0820
221.892172 75.472 68.6523
223.500094 75.748 42.2417
225.119668 74.850 23.1726
226.750978 73.632 12.7563
228.394109 72.756 -3.1904
230.049147 72.211 -19.5884
231.716178 72.476 87.1589
233.395289 73.635 73.0396
235.086567 75.038 56.1462
236.790102 76.545 43.9585
238.505980 77.844 27.9612
240.234293 78.492 6.7954
241.975130 78.320 -17.3938
243.728581 77.222 -42.8923
245.494739 75.562 -38.6794
247.273695 74.808 30.3401
249.065542 75.271 16.4868
250.870374 75.897 1.7363
252.688284 76.584 -7.1045
254.519367 77.315 -17.8276
256.363720 77.653 -33.1187
258.221437 77.500 -48.4365
260.092616 77.046 -62.1763
261.977354 76.927 -64.2864
263.875750 77.449 -71.8291
265.787903 77.221 -98.9602
267.713911 75.477 -129.1521
269.653877 72.854 -163.7612
271.607900 70.979 90.9114
273.576083 70.735 8.3025
275.558528 70.606 -26.2961
277.555338 70.074 -41.1042
279.566619 70.223 -41.0122
281.592474 71.070 -50.7605
283.633009 72.355 -50.1887
285.688331 74.239 -33.2383
287.758546 75.553 -53.1565
289.843763 75.640 -83.5295
291.944090 74.728 -113.7136
294.059638 73.534 -147.6577
296.190515 73.490 142.0112
298.336833 75.297 27.7668
300.498705 77.477 -21.3081
302.676243 78.677 -62.3938
304.869559 78.320 -98.9683
307.078770 76.508 -117.8342
309.303989 74.401 -122.2854
311.545334 73.133 -134.5918
313.802919 72.516 -143.5928
316.076865 72.465 -150.9700
318.367288 72.397 -172.4797
320.674309 71.760 178.8926
322.998047 70.753 168.7830
325.338624 70.057 -165.6743
327.696162 71.293 -106.4978
330.070783 73.827 -132.3328
332.462612 76.071 -160.7871
334.871773 76.841 160.4070
337.298392 75.596 125.3242
339.742595 73.068 118.3677
342.204510 71.353 122.0122
344.684265 71.202 99.9062
347.181989 71.155 70.1057
349.697813 70.711 70.2212
352.231868 70.670 110.2754
354.784285 71.460 89.3699
357.355198 72.097 59.4246
359.944741 71.993 29.3774
362.553049 71.572 2.2178
365.180258 71.127 -30.1909
367.826505 70.157 -67.5977
370.491927 68.797 66.2271
373.176665 68.583 58.9768
375.880856 70.113 58.3704
378.604644 71.412 32.7266
381.348169 71.783 4.3848
384.111575 71.572 -21.0361
386.895006 71.021 -47.1396
389.698607 69.947 -77.5122
392.522524 68.458 -95.2266
395.366904 68.394 15.5342
398.231895 69.975 -9.1533
401.117648 71.091 -41.9219
404.024312 71.240 -71.9204
406.952038 71.116 -94.6309
409.900981 70.778 -126.1685
412.871292 69.505 -168.0488
415.863128 67.840 131.4390
418.876643 67.267 28.1118
421.911996 68.249 -31.6851
424.969344 69.687 -69.9189
428.048847 71.058 -98.8286
431.150666 72.183 -126.9536
434.274961 72.403 -163.0508
437.421897 71.922 164.0962
440.591636 71.238 140.1230
443.784345 70.743 159.5283
447.000189 71.407 154.8789
450.239337 72.572 128.4536
453.501956 73.387 99.3970
456.788219 73.404 66.1851
460.098294 72.201 37.7583
463.432356 70.142 49.4360
466.790578 68.911 59.5864
470.173135 69.872 59.9595
473.580203 71.853 60.9194
477.011961 72.952 36.9639
480.468586 72.886 9.3120
483.950259 72.533 -15.1504
487.457163 72.204 -45.0889
490.989478 71.643 -79.5693
494.547390 70.885 -120.1240
498.131084 69.972 -164.8862
501.740748 69.321 154.5454
505.376568 69.172 117.4292
509.038735 69.611 90.1494
512.727439 70.145 81.3579
516.442874 70.995 82.4473
520.185232 72.395 67.0874
523.954708 73.762 45.5820
527.751500 74.124 17.2700
531.575805 73.181 -7.3809
535.427822 71.701 -21.4072
539.307753 70.792 -30.8677
543.215800 70.275 -52.7139
547.152165 69.135 -79.8511
551.117055 67.787 -81.1099
555.110677 67.664 -61.5708
559.133237 67.968 -106.7852
563.184947 67.575 58.1973
567.266018 67.567 27.1230
571.376661 68.386 9.1699
575.517092 68.946 -11.2520
579.687526 68.648 -29.6499
583.888181 67.491 -52.3579
588.119275 66.111 -74.6841
592.381030 66.512 -71.6475
596.673667 68.885 -79.9707
600.997410 70.637 -130.9751
605.352485 70.786 167.4375
609.739119 70.416 131.4741
614.157540 70.964 116.3799
618.607979 71.884 89.5479
623.090667 72.923 70.6040
627.605839 74.120 44.7124
632.153730 74.522 2.6016
636.734576 74.649 -25.2646
641.348617 75.600 81.5220
645.996094 76.719 37.0010
650.677248 77.329 -9.1187
655.392323 76.978 -64.9727
660.141566 76.100 -157.1919
664.925224 76.282 106.0688
669.743546 77.354 54.4043
674.596784 77.526 13.9263
679.485191 76.799 -5.8423
684.409020 76.486 -13.5156
689.368530 76.309 -42.9697
694.363979 75.060 -83.3071
699.395626 73.603 81.1270
704.463736 73.380 42.8120
709.568570 73.671 12.1519
714.710396 73.448 -13.6846
719.889483 72.760 -23.4180
725.106099 72.287 -18.0332
730.360516 72.132 -21.2466
735.653010 72.287 -30.1714
740.983855 72.270 -45.1318
746.353329 71.989 -38.0840
751.761713 72.777 -14.6265
757.209288 74.378 -22.6616
762.696339 75.140 -41.7842
768.223151 75.628 -37.2129
773.790013 76.865 -37.1567
779.397214 77.521 -64.0508
785.045047 76.883 -94.0195
790.733808 75.378 -106.0474
796.463791 74.055 -104.8203
802.235296 73.741 -117.3579
808.048623 73.792 -145.2329
813.904077 73.903 169.8818
819.801961 74.603 98.7852
825.742584 75.335 13.5317
831.726255 75.382 -44.6777
837.753287 75.308 -87.6318
843.823992 75.563 -136.5693
849.938689 75.347 157.1724
856.097695 74.044 61.9434
862.301332 72.740 -15.3809
868.549922 72.198 -70.8481
874.843793 72.174 -120.2563
881.183272 73.063 177.9893
887.568689 74.558 105.4531
894.000378 75.673 42.2939
900.478673 75.659 -8.4375
907.003913 74.835 -45.3125
913.576437 74.607 -52.9946
920.196588 75.347 -35.2524
926.864712 75.290 -65.3521
933.581156 74.179 -62.3057
940.346270 73.459 -26.6411
947.160407 73.736 -50.5708
954.023921 73.696 -84.5630
960.937172 72.678 -100.3013
967.900519 71.345 -78.2290
974.914325 70.630 -85.7563
981.978956 70.542 -99.2998
989.094780 70.573 -110.7285
996.262169 70.115 -115.3496
1003.481495 69.992 -109.6489
1010.753136 71.284 -99.3506
1018.077470 72.826 -85.6880
1025.454879 73.493 -110.1504
1032.885748 73.423 -136.8008
1040.370463 72.779 -164.8398
1047.909417 71.584 167.5923
1055.503000 70.635 112.8838
1063.151610 70.631 -53.9473
1070.855645 71.721 -103.2485
1078.615506 72.303 -144.4424
1086.431599 71.975 -158.8281
1094.304330 71.622 -154.8247
1102.234110 72.075 172.6240
1110.221353 72.730 129.5527
1118.266475 72.881 90.6035
1126.369895 72.562 52.9810
1134.532035 72.187 21.8071
1142.753322 72.405 -2.8315
1151.034184 72.685 -38.4106
1159.375052 72.597 -76.0396
1167.776361 72.303 -111.0835
1176.238550 72.154 -142.2446
1184.762060 72.100 176.1714
1193.347334 71.819 114.2930
1201.994821 71.475 25.4019
1210.704971 71.377 -51.3013
1219.478238 71.299 -105.8555
1228.315080 70.991 -144.9922
1237.215957 70.098 -162.2012
1246.181334 69.338 -118.0586
1255.211678 69.605 -102.4336
1264.307459 69.644 -145.1680
1273.469152 68.642 178.8555
1282.697235 67.146 153.9600
1291.992188 66.503 124.7246
1301.354495 66.346 98.9707
1310.784647 66.153 74.2373
1320.283132 66.502 46.7070
1329.850448 67.741 22.9307
1339.487093 69.602 -29.1494
1349.193569 71.300 -96.9912
1358.970381 71.716 -171.2148
1368.818041 70.624 127.9375
1378.737061 69.382 96.0586
1388.727958 69.469 57.8496
1398.791253 70.269 2.4443
1408.927471 70.733 -61.4492
1419.137140 70.799 -129.3965
1429.420793 70.938 163.1406
1439.778965 71.414 118.4961
1450.212197 71.831 95.6396
1460.721033 71.630 57.3350
1471.306019 71.139 18.5049
1481.967709 71.109 -19.8975
1492.706658 71.610 -62.4043
1503.523426 71.571 -110.3164
1514.418576 70.986 -155.6807
1525.392678 71.058 157.8584
1536.446302 71.457 114.0713
1547.580025 71.458 65.0996
1558.794428 71.911 22.8213
1570.090095 72.635 -15.8418
1581.467615 72.610 -43.5654
1592.927581 71.848 -12.5928
1604.470591 70.961 -24.8662
1616.097246 70.175 -42.8467
1627.808153 70.459 -49.6621
1639.603922 71.815 -56.0332
1651.485168 72.331 -77.1074
1663.452510 72.121 -69.0459
1675.506573 72.652 -21.2236
1687.647984 73.418 -8.1094
1699.877377 73.885 -42.5947
1712.195390 74.159 -66.0957
1724.602663 74.341 -82.5420
1737.099845 74.264 -110.9004
1749.687587 73.944 -134.4844
1762.366544 73.290 -155.2539
1775.137379 72.822 -157.4111
1788.000756 72.637 -82.8428
1800.957346 72.409 -112.3262
1814.007826 72.129 -140.0156
1827.152874 71.938 -104.0615
1840.393177 72.407 -95.5713
1853.729425 73.197 -117.2891
1867.162312 73.159 -136.3838
1880.692540 72.125 -143.6904
1894.320813 71.206 -147.4824
1908.047843 70.920 -146.8799
1921.874344 71.292 -128.4922
