* Measurement data measured by REW V5.31
* Source: Scarlett 2i4 USB, MICROPHONE, R, volume: no control. Timing signal peak level -30.5 dBFS, measurement signal peak level -21.8 dBFS
* Format: 512k Log Swept Sine, 1 sweep at -18.0 dBFS using an acoustic timing reference
* Dated: Apr 16, 2024 9:39:46 AM
* REW Settings:
*  C-weighting compensation: Off
*  Target level: 75.0 dB
* Note: ; Delay -0.9017 ms (-309 mm, -(1 ft 0.18 in)) using estimated IR delay relative to Acoustic reference played from SPEAKER L with no timing offset
* Measurement: pillows-and-throws-p1-c
* Smoothing: 1/48 octave
* Frequency Step: 96 ppo
* Start Frequency: 10.093689 Hz
*
* Freq(Hz) SPL(dB) Phase(degrees)
10.093689 27.403 18.2242
10.166832 27.623 18.6430
10.240505 27.890 19.0665
10.314712 28.164 19.4111
10.389457 28.444 19.6020
10.464743 28.738 19.5898
10.540575 29.051 19.4529
10.616956 29.375 19.1970
10.693891 29.698 18.8071
10.771383 30.011 18.2683
10.849437 30.315 17.5770
10.928057 30.610 16.7641
11.007246 30.896 15.8628
11.087009 31.169 14.9000
11.167350 31.426 13.8714
11.248273 31.670 12.7567
11.329783 31.901 11.5952
11.411883 32.122 10.4248
11.494578 32.333 9.2626
11.577873 32.533 8.0753
11.661771 32.725 6.8740
11.746277 32.913 5.6755
11.831395 33.100 4.4961
11.917130 33.284 3.3299
12.003487 33.467 2.1564
12.090469 33.653 0.9575
12.178081 33.845 -0.2629
12.266329 34.040 -1.4838
12.355216 34.239 -2.7414
12.444747 34.441 -4.0728
12.534926 34.648 -5.4746
12.625760 34.859 -6.9243
12.717251 35.069 -8.4432
12.809406 35.277 -10.0558
12.902228 35.484 -11.7650
12.995723 35.686 -13.5475
13.089895 35.881 -15.3874
13.184750 36.066 -17.2940
13.280292 36.241 -19.2919
13.376526 36.405 -21.3290
13.473458 36.555 -23.3576
13.571093 36.691 -25.4279
13.669434 36.813 -27.5285
13.768489 36.922 -29.5898
13.868261 37.018 -31.5898
13.968756 37.100 -33.5856
14.069979 37.170 -35.5263
14.171936 37.232 -37.3594
14.274632 37.284 -39.1228
14.378072 37.329 -40.8107
14.482261 37.371 -42.3923
14.587206 37.409 -43.8672
14.692910 37.445 -45.2481
14.799381 37.481 -46.5320
14.906624 37.518 -47.7157
15.014643 37.555 -48.8017
15.123446 37.593 -49.7894
15.233036 37.632 -50.6824
15.343421 37.671 -51.4784
15.454606 37.712 -52.1584
15.566596 37.754 -52.7151
15.679398 37.797 -53.1538
15.793018 37.847 -53.4495
15.907460 37.904 -53.5819
16.022732 37.971 -53.5616
16.138840 38.056 -53.4065
16.255788 38.165 -53.1014
16.373585 38.298 -52.6659
16.492234 38.463 -52.2023
16.611744 38.662 -51.6981
16.732119 38.893 -51.1952
16.853367 39.151 -50.8314
16.975494 39.436 -50.5760
17.098505 39.738 -50.4621
17.222408 40.043 -50.5620
17.347209 40.351 -50.8437
17.472914 40.649 -51.2686
17.599530 40.929 -51.8442
17.727063 41.188 -52.5467
17.855521 41.421 -53.2524
17.984909 41.625 -53.9986
18.115235 41.803 -54.7066
18.246506 41.956 -55.2390
18.378727 42.087 -55.6214
18.511907 42.207 -55.9392
18.646052 42.320 -55.9242
18.781169 42.437 -55.6800
18.917265 42.574 -55.1702
19.054347 42.736 -54.4055
19.192423 42.939 -53.4779
19.331499 43.190 -52.3856
19.471583 43.494 -51.2428
19.612682 43.856 -50.1780
19.754804 44.273 -49.1878
19.897956 44.736 -48.4906
20.042144 45.242 -48.0263
20.187378 45.775 -47.9381
20.333664 46.325 -48.2367
20.481010 46.880 -48.8911
20.629424 47.424 -49.9705
20.778913 47.952 -51.3755
20.929486 48.447 -53.0966
21.081150 48.907 -55.1116
21.233912 49.320 -57.2722
21.387782 49.683 -59.6268
21.542767 49.993 -61.9783
21.698874 50.250 -64.3221
21.856113 50.457 -66.5484
22.014492 50.621 -68.5254
22.174018 50.753 -70.2684
22.334700 50.870 -71.6117
22.496546 50.986 -72.6227
22.659566 51.127 -73.2775
22.823766 51.302 -73.6314
22.989157 51.528 -73.8743
23.155745 51.804 -74.0214
23.323542 52.119 -74.3202
23.492554 52.463 -74.7338
23.662790 52.811 -75.3380
23.834261 53.154 -76.0709
24.006973 53.478 -76.7807
24.180938 53.787 -77.4302
24.356163 54.097 -77.7766
24.532658 54.428 -77.8669
24.710431 54.821 -77.6029
24.889493 55.296 -77.2194
25.069853 55.881 -76.8791
25.251519 56.563 -76.9807
25.434502 57.327 -77.6831
25.618811 58.123 -79.2675
25.804456 58.917 -81.6823
25.991445 59.662 -84.9248
26.179790 60.335 -88.8654
26.369500 60.909 -93.3040
26.560584 61.375 -98.1209
26.753053 61.722 -103.0919
26.946917 61.951 -108.0103
27.142185 62.065 -112.7880
27.338869 62.081 -117.0607
27.536977 62.014 -120.8241
27.736522 61.906 -123.7410
27.937512 61.799 -125.8841
28.139959 61.747 -127.1388
28.343872 61.803 -127.9205
28.549264 61.991 -128.3748
28.756143 62.306 -129.1715
28.964522 62.712 -130.4832
29.174411 63.161 -132.5677
29.385821 63.595 -135.4105
29.598763 63.983 -138.9038
29.813248 64.291 -142.9121
30.029287 64.508 -147.1661
30.246891 64.624 -151.6101
30.466073 64.640 -155.9353
30.686842 64.560 -160.0142
30.909212 64.391 -163.7184
31.133193 64.152 -166.7650
31.358797 63.870 -169.0513
31.586035 63.579 -170.3883
31.814921 63.342 -170.7123
32.045465 63.221 -170.2003
32.277680 63.268 -169.0996
32.511577 63.510 -168.0847
32.747169 63.910 -167.7293
32.984469 64.412 -168.3180
33.223488 64.936 -170.0523
33.464239 65.414 -172.7447
33.706735 65.805 -176.1166
33.950987 66.086 -179.9354
34.197010 66.255 176.2300
34.444816 66.331 172.6526
34.694417 66.349 169.5000
34.945827 66.355 166.9349
35.199059 66.407 164.8303
35.454126 66.536 162.8800
35.711041 66.745 160.6885
35.969818 67.008 157.9532
36.230470 67.267 154.4913
36.493011 67.469 150.3334
36.757455 67.574 145.6797
37.023814 67.558 140.7529
37.292104 67.412 135.8857
37.562338 67.149 131.4197
37.834530 66.800 127.5519
38.108695 66.404 124.4121
38.384846 66.007 122.0240
38.662999 65.648 120.2314
38.943167 65.344 118.7273
39.225365 65.087 117.2740
39.509608 64.849 115.7565
39.795911 64.603 114.1865
40.084289 64.331 112.6874
40.374756 64.029 111.4451
40.667328 63.708 110.6384
40.962020 63.395 110.3767
41.258848 63.118 110.6924
41.557827 62.912 111.5366
41.858972 62.806 112.7620
42.162299 62.823 114.1169
42.467824 62.967 115.2735
42.775564 63.219 115.9048
43.085533 63.540 115.7823
43.397749 63.881 114.8364
43.712227 64.201 113.1468
44.028983 64.473 110.8789
44.348036 64.686 108.2092
44.669400 64.836 105.2797
44.993093 64.925 102.1845
45.319131 64.955 98.9833
45.647532 64.923 95.7299
45.978313 64.827 92.4995
46.311491 64.667 89.3980
46.647083 64.449 86.5489
46.985107 64.187 84.0617
47.325581 63.902 81.9947
47.668521 63.617 80.3312
48.013947 63.350 78.9856
48.361876 63.108 77.8373
48.712326 62.892 76.7740
49.065315 62.696 75.7159
49.420863 62.511 74.6183
49.778987 62.328 73.4621
50.139706 62.136 72.2525
50.503039 61.928 71.0230
50.869005 61.697 69.8367
51.237623 61.443 68.7722
51.608912 61.172 67.8933
51.982891 60.893 67.2195
52.359580 60.612 66.7207
52.739000 60.329 66.3505
53.121168 60.038 66.1017
53.506106 59.731 66.0453
53.893833 59.411 66.3185
54.284370 59.094 67.0656
54.677737 58.811 68.3436
55.073955 58.592 70.0416
55.473043 58.456 71.8922
55.875024 58.389 73.6008
56.279917 58.357 75.0146
56.687745 58.317 76.2265
57.098527 58.247 77.5935
57.512287 58.168 79.6293
57.929045 58.153 82.7540
58.348822 58.312 86.9629
58.771642 58.734 91.6300
59.197525 59.432 95.8109
59.626495 60.356 98.8212
60.058573 61.438 100.3497
60.493782 62.611 100.1516
60.932145 63.798 97.9690
61.373685 64.908 93.7563
61.818424 65.855 87.7469
62.266386 66.573 80.4829
62.717593 67.039 72.6060
63.172071 67.270 64.7997
63.629842 67.322 57.6496
64.090930 67.276 51.4162
64.555359 67.220 46.0092
65.023154 67.209 41.0031
65.494339 67.251 35.9337
65.968938 67.317 30.5071
66.446976 67.380 24.6730
66.928478 67.425 18.4712
67.413469 67.449 11.8912
67.901975 67.446 4.8486
68.394021 67.400 -2.7236
68.889632 67.293 -10.8042
69.388835 67.118 -19.2256
69.891655 66.897 -27.8540
70.398118 66.677 -36.7289
70.908252 66.504 -46.2255
71.422083 66.381 -56.9525
71.939636 66.260 -69.3691
72.460941 66.064 -83.5186
72.986023 65.744 -99.1379
73.514909 65.293 -115.6902
74.047629 64.750 -132.6920
74.584208 64.181 -149.6570
75.124676 63.664 -166.0766
75.669061 63.287 178.5419
76.217390 63.164 164.5128
76.769692 63.383 151.4747
77.325997 63.912 138.4817
77.886333 64.576 124.6491
78.450730 65.178 109.9708
79.019216 65.602 95.0031
79.591822 65.826 80.5586
80.168577 65.898 67.1241
80.749512 65.887 54.8405
81.334656 65.850 43.5883
81.924040 65.820 33.1393
82.517696 65.819 23.2554
83.115653 65.846 13.7034
83.717943 65.887 4.3579
84.324598 65.935 -4.7100
84.935649 66.003 -13.4158
85.551128 66.111 -21.9026
86.171066 66.249 -30.4846
86.795497 66.371 -39.2996
87.424453 66.439 -48.1249
88.057967 66.457 -56.6568
88.696071 66.446 -64.9208
89.338800 66.391 -73.2802
89.986185 66.214 -81.9059
90.638262 65.821 -90.2098
91.295065 65.198 -96.7535
91.956626 64.504 -99.7101
92.622982 64.140 -98.0368
93.294166 64.563 -93.3671
93.970214 65.815 -90.2952
94.651161 67.434 -92.5305
95.337042 68.927 -100.1641
96.027894 70.029 -111.2487
96.723752 70.673 -123.6931
97.424652 70.901 -135.9673
98.130631 70.797 -147.2063
98.841726 70.441 -156.9946
99.557974 69.910 -165.0421
100.279412 69.295 -171.1324
101.006078 68.701 -175.3314
101.738010 68.224 -178.0127
102.475245 67.935 -179.8298
103.217823 67.832 178.1608
103.965782 67.810 175.1113
104.719161 67.736 171.2489
105.477999 67.553 167.5286
106.242336 67.306 164.7389
107.012212 67.094 163.0709
107.787666 67.004 161.9976
108.568740 67.035 160.4187
109.355474 67.078 157.6807
110.147909 67.020 154.2924
110.946086 66.830 151.1838
111.750047 66.532 148.6598
112.559834 66.124 146.5924
113.375489 65.590 145.6248
114.197055 65.015 147.2200
115.024574 64.640 151.9716
115.858089 64.701 158.3872
116.697645 65.241 164.1338
117.543284 66.103 167.6251
118.395051 67.081 168.5388
119.252990 68.043 167.5354
120.117147 68.953 165.4036
120.987565 69.822 162.4806
121.864291 70.664 158.7906
122.747370 71.479 154.2185
123.636848 72.246 148.4810
124.532771 72.921 141.3455
125.435187 73.442 132.6790
126.344142 73.730 122.3540
127.259684 73.681 110.6111
128.181860 73.218 98.3611
129.110718 72.337 86.6555
130.046308 71.070 75.7948
130.988677 69.403 65.6609
131.937875 67.271 56.5542
132.893951 64.650 48.2814
133.856956 61.907 37.2694
134.826938 61.172 -40.9752
135.803950 63.809 -137.9331
136.788041 66.974 -156.3473
137.779264 69.370 -173.1162
138.777669 70.928 170.7446
139.783309 71.810 156.1765
140.796237 72.184 143.4935
141.816504 72.152 132.5729
142.844165 71.780 123.7633
143.879273 71.173 117.7139
144.921881 70.486 114.8276
145.972045 69.941 115.2469
147.029819 69.775 117.8774
148.095257 70.064 120.1718
149.168417 70.661 120.3225
150.249353 71.352 117.9561
151.338121 71.980 113.4485
152.434780 72.462 107.3798
153.539385 72.768 100.2229
154.651995 72.888 92.2354
155.772667 72.811 83.3890
156.901460 72.511 73.6777
158.038432 71.967 63.2188
159.183644 71.183 51.8336
160.337154 70.170 38.6038
161.499023 68.958 21.6228
162.669312 67.699 -2.7295
163.848081 66.885 -40.9720
165.035392 67.141 -91.4705
166.231306 68.250 -132.4241
167.435887 69.469 -159.8229
168.649196 70.482 -178.4747
169.871298 71.343 168.5703
171.102255 72.091 158.0621
172.342133 72.615 147.7732
173.590995 72.801 137.8280
174.848907 72.607 128.9282
176.115934 72.046 122.2828
177.392143 71.353 121.5734
178.677599 71.144 128.1058
179.972371 71.708 133.3118
181.276525 72.606 133.0664
182.590129 73.480 130.3412
183.913252 74.277 126.7423
185.245964 74.981 121.7924
186.588332 75.501 115.0713
187.940428 75.725 106.9452
189.302322 75.551 98.1609
190.674085 74.907 90.1746
192.055788 73.862 86.2517
193.447503 72.844 90.3965
194.849303 72.484 98.8514
196.261262 72.795 103.0371
197.683452 73.355 104.0259
199.115948 74.052 104.9705
200.558824 74.973 105.8435
202.012156 76.053 104.1875
203.476019 77.034 98.3793
204.950490 77.666 89.2898
206.435646 77.824 78.7731
207.931564 77.479 68.6000
209.438322 76.690 60.7347
210.955998 75.673 57.5713
212.484672 74.833 59.2570
214.024424 74.413 60.8950
215.575333 74.178 59.3041
217.137481 73.866 57.7026
218.710948 73.627 59.3624
220.295818 73.790 63.0172
221.892172 74.394 64.5419
223.500094 75.103 61.3010
225.119668 75.547 54.0543
226.750978 75.547 45.3096
228.394109 75.093 37.1199
230.049147 74.267 31.0095
231.716178 73.247 28.4529
233.395289 72.250 28.1866
235.086567 71.346 28.4258
236.790102 70.645 31.8728
238.505980 70.600 40.9584
240.234293 71.337 46.4572
241.975130 72.181 42.4535
243.728581 72.585 33.6447
245.494739 72.381 23.2126
247.273695 71.495 13.0017
249.065542 69.976 7.9768
250.870374 68.340 14.8185
252.688284 67.447 25.2084
254.519367 67.277 27.1846
256.363720 67.083 23.2695
258.221437 66.403 16.3688
260.092616 65.290 10.3253
261.977354 65.026 38.6105
263.875750 66.949 96.3898
265.787903 69.429 90.8638
267.713911 71.202 76.8573
269.653877 72.052 61.3828
271.607900 72.138 48.9672
273.576083 71.922 42.5020
275.558528 71.760 37.3135
277.555338 71.741 33.4121
279.566619 72.133 32.3098
281.592474 72.899 26.9347
283.633009 73.561 15.0593
285.688331 73.742 -1.5536
287.758546 73.172 -21.7930
289.843763 71.677 -42.5677
291.944090 69.356 -62.3748
294.059638 66.707 -88.5757
296.190515 65.020 136.8005
298.336833 65.412 71.3875
300.498705 66.555 46.6333
302.676243 67.393 28.6228
304.869559 67.743 12.4058
307.078770 67.468 -3.0056
309.303989 66.846 -12.0510
311.545334 66.388 -20.5508
313.802919 65.872 -34.8579
316.076865 64.896 -50.0691
318.367288 63.578 -63.3308
320.674309 62.172 -79.9199
322.998047 60.684 -102.6006
325.338624 59.775 -120.1160
327.696162 60.985 -13.7673
330.070783 63.256 -41.8528
332.462612 64.872 -77.8459
334.871773 65.503 -111.4951
337.298392 65.462 -138.3645
339.742595 65.187 -158.6709
342.204510 64.860 -174.7908
344.684265 64.457 172.0205
347.181989 64.129 163.8838
349.697813 64.717 173.0603
352.231868 66.440 -179.3760
354.784285 68.024 168.8398
357.355198 68.926 153.8018
359.944741 69.369 141.4692
362.553049 69.590 130.5508
365.180258 69.732 121.2869
367.826505 69.963 112.9363
370.491927 70.159 101.3494
373.176665 69.948 86.3208
375.880856 69.182 72.1345
378.604644 68.123 61.1873
381.348169 66.994 47.4802
384.111575 65.521 29.0718
386.895006 63.581 8.6196
389.698607 61.730 -20.0107
392.522524 61.170 -62.7771
395.366904 62.682 -102.7336
398.231895 65.137 -130.1079
401.117648 67.400 -151.7710
404.024312 69.053 -172.0464
406.952038 69.818 166.9536
409.900981 69.683 149.8909
412.871292 69.227 141.9412
415.863128 69.327 141.2871
418.876643 70.233 139.4868
421.911996 71.306 129.8337
424.969344 72.014 115.3276
428.048847 72.024 96.3069
431.150666 71.035 77.8960
434.274961 69.417 70.5562
437.421897 68.079 60.3018
440.591636 66.882 34.1719
443.784345 65.443 -9.1079
447.000189 65.060 -80.8704
450.239337 66.510 -129.5054
453.501956 68.193 -157.7935
456.788219 69.832 -172.9470
460.098294 71.774 179.1543
463.432356 73.603 166.7827
466.790578 74.794 149.4675
470.173135 75.170 131.4199
473.580203 75.042 118.4473
477.011961 75.023 110.2183
480.468586 75.281 100.0134
483.950259 75.472 86.0601
487.457163 75.317 69.4189
490.989478 74.644 50.1077
494.547390 73.264 28.0718
498.131084 71.095 4.9783
501.740748 68.936 -1.9272
505.376568 68.946 117.9905
509.038735 70.142 92.7546
512.727439 70.439 65.1677
516.442874 69.673 45.3208
520.185232 68.929 43.6487
523.954708 69.529 43.6653
527.751500 70.755 27.7666
531.575805 71.616 4.4004
535.427822 71.839 -22.2776
539.307753 71.351 -50.0388
543.215800 70.126 -73.5090
547.152165 68.995 -80.4583
551.117055 69.494 -83.9622
555.110677 70.830 -101.7991
559.133237 71.555 -128.4099
563.184947 71.166 -157.9141
567.266018 69.563 177.7097
571.376661 67.622 -157.3835
575.517092 67.395 -125.0205
579.687526 68.321 -139.0837
583.888181 68.819 -155.2312
588.119275 69.009 -161.2332
592.381030 69.545 -161.6477
596.673667 69.876 -174.7607
600.997410 69.254 170.7146
605.352485 68.022 168.6360
609.739119 67.551 179.9602
614.157540 68.406 -174.5383
618.607979 69.398 178.5740
623.090667 69.576 166.1804
627.605839 68.936 157.7024
632.153730 68.168 156.6948
636.734576 68.487 165.9404
641.348617 70.430 -178.7236
645.996094 72.634 176.5361
650.677248 74.019 158.3999
655.392323 74.468 138.1902
660.141566 74.229 119.5264
664.925224 73.440 100.8965
669.743546 72.009 84.9321
674.596784 70.325 79.3433
679.485191 69.289 73.1663
684.409020 68.885 59.9558
689.368530 68.763 42.6663
694.363979 68.475 17.5459
699.395626 67.503 -10.9604
704.463736 65.879 -36.3000
709.568570 64.345 -53.9561
714.710396 64.669 -48.7922
719.889483 67.118 -32.6628
725.106099 69.286 -51.3926
730.360516 70.310 -76.6672
735.653010 70.522 -97.7207
740.983855 70.480 -111.4143
746.353329 70.860 -118.7305
751.761713 71.814 -125.0161
757.209288 72.504 -142.6685
762.696339 72.169 -164.5200
768.223151 70.851 177.3926
773.790013 68.951 166.2847
779.397214 66.863 155.9531
785.045047 64.710 150.2842
790.733808 63.573 179.3904
796.463791 64.082 -171.4387
802.235296 65.168 151.7058
808.048623 66.535 65.1267
813.904077 68.307 -13.1943
819.801961 70.304 -50.4229
825.742584 71.854 -78.6138
831.726255 72.258 -105.6387
837.753287 71.537 -126.4023
843.823992 70.248 -137.9268
849.938689 69.247 -140.2412
856.097695 69.007 -147.1035
862.301332 68.699 -163.9751
868.549922 68.442 -140.9043
874.843793 69.562 -88.2568
881.183272 70.942 -108.0215
887.568689 71.137 -131.1426
894.000378 70.403 -141.9023
900.478673 70.030 -140.5151
907.003913 70.054 -150.1636
913.576437 69.251 -164.6411
920.196588 67.868 -162.4634
926.864712 67.184 -154.7900
933.581156 66.559 -168.4761
940.346270 65.001 -179.7002
947.160407 63.191 -168.8267
954.023921 62.263 -168.9341
960.937172 62.585 172.7495
967.900519 64.037 -19.6367
974.914325 65.313 -55.5947
981.978956 65.516 -83.0273
989.094780 64.795 -98.3599
996.262169 64.028 -106.5288
1003.481495 64.481 -82.8535
1010.753136 66.904 -32.9990
1018.077470 69.551 -43.3877
1025.454879 71.486 -59.8643
1032.885748 72.752 -76.4863
1040.370463 73.295 -93.7568
1047.909417 73.421 -107.5806
1055.503000 73.104 -126.4678
1063.151610 71.654 -145.8599
1070.855645 69.374 -142.7397
1078.615506 67.678 -135.9951
1086.431599 67.214 -136.0298
1094.304330 67.816 -54.5156
1102.234110 68.679 -68.3232
1110.221353 69.313 -81.4365
1118.266475 69.683 -93.1699
1126.369895 69.422 -104.1729
1134.532035 69.215 -104.0049
1142.753322 70.034 -102.2480
1151.034184 70.835 -117.6328
1159.375052 70.419 -139.0547
1167.776361 69.110 -147.7764
1176.238550 67.908 -160.1187
1184.762060 66.335 165.1519
1193.347334 64.334 8.7598
1201.994821 62.932 -47.4419
1210.704971 62.041 -63.0928
1219.478238 61.662 -70.1304
1228.315080 62.410 -49.6973
1237.215957 64.568 -23.1719
1246.181334 66.511 -33.7275
1255.211678 67.485 -49.9624
1264.307459 67.515 -62.4653
1273.469152 66.995 -72.1553
1282.697235 65.960 -78.1152
1291.992188 65.209 -71.7500
1301.354495 65.554 -67.1245
1310.784647 66.587 -66.7832
1320.283132 67.017 -78.6201
1329.850448 66.205 -87.2314
1339.487093 65.049 -94.9863
1349.193569 64.472 -106.8364
1358.970381 64.978 -130.1079
1368.818041 65.603 98.1597
1378.737061 66.296 17.0786
1388.727958 67.167 -17.2500
1398.791253 67.057 -50.9502
1408.927471 65.398 -79.8516
1419.137140 62.638 -98.6265
1429.420793 60.781 15.9229
1439.778965 62.016 33.0117
1450.212197 63.494 11.0449
1460.721033 63.172 -8.2793
1471.306019 62.143 0.8774
1481.967709 62.835 21.4883
1492.706658 64.631 17.8052
1503.523426 65.710 1.9775
1514.418576 65.715 -15.4648
1525.392678 65.112 -29.9395
1536.446302 64.417 -40.8418
1547.580025 63.690 -1.0488
1558.794428 64.076 30.1284
1570.090095 65.652 18.3765
1581.467615 67.011 -1.8882
1592.927581 67.943 -25.3931
1604.470591 68.128 -59.8711
1616.097246 67.060 -108.3521
1627.808153 65.161 -175.9819
1639.603922 63.671 134.9917
1651.485168 64.393 117.8726
1663.452510 65.920 92.4521
1675.506573 66.540 65.7764
1687.647984 66.195 44.8286
1699.877377 65.680 30.4390
1712.195390 65.659 21.6763
1724.602663 65.989 34.9990
1737.099845 65.654 23.7222
1749.687587 63.915 8.5259
1762.366544 62.447 32.1147
1775.137379 63.302 48.2925
1788.000756 64.155 28.4404
1800.957346 64.062 51.4912
1814.007826 64.598 53.1782
1827.152874 65.871 7.1504
1840.393177 66.573 -86.6650
1853.729425 65.930 -177.1973
1867.162312 64.727 137.7886
1880.692540 63.674 111.7910
1894.320813 63.053 101.6055
1908.047843 63.498 94.3770
1921.874344 64.695 92.6802
