* Measurement data measured by REW V5.31
* Source: Scarlett 2i4 USB, MICROPHONE, R, volume: no control. Timing signal peak level -30.8 dBFS, measurement signal peak level -25.8 dBFS
* Format: 512k Log Swept Sine, 1 sweep at -18.0 dBFS using an acoustic timing reference
* Dated: Apr 16, 2024 9:39:21 AM
* REW Settings:
*  C-weighting compensation: Off
*  Target level: 75.0 dB
* Note: ; Delay 0.0441 ms (15 mm, 0.6 in) using estimated IR delay relative to Acoustic reference played from SPEAKER L with no timing offset
* Measurement: pillows-and-throws-p1-r
* Smoothing: 1/48 octave
* Frequency Step: 96 ppo
* Start Frequency: 10.093689 Hz
*
* Freq(Hz) SPL(dB) Phase(degrees)
10.093689 14.380 103.6044
10.166832 14.559 97.2207
10.240505 14.777 90.8888
10.314712 15.000 84.8626
10.389457 15.217 79.3337
10.464743 15.402 74.3326
10.540575 15.537 69.3337
10.616956 15.629 64.4493
10.693891 15.657 59.9534
10.771383 15.601 56.1349
10.849437 15.458 52.6913
10.928057 15.233 49.3739
11.007246 14.924 46.4782
11.087009 14.516 44.4451
11.167350 13.960 43.5863
11.248273 13.246 43.7442
11.329783 12.517 45.2568
11.411883 11.961 48.5751
11.494578 11.690 54.1917
11.577873 11.654 62.4747
11.661771 11.859 71.9404
11.746277 12.356 80.2271
11.831395 13.217 86.0366
11.917130 14.441 90.2421
12.003487 15.816 92.5269
12.090469 17.120 92.9123
12.178081 18.249 91.7407
12.266329 19.281 89.7671
12.355216 20.232 87.2161
12.444747 21.099 84.1504
12.534926 21.872 80.5239
12.625760 22.557 76.5167
12.717251 23.176 72.3407
12.809406 23.746 68.0612
12.902228 24.260 63.4826
12.995723 24.724 58.7162
13.089895 25.155 53.9291
13.184750 25.562 49.1331
13.280292 25.940 44.1622
13.376526 26.301 39.1301
13.473458 26.657 34.1395
13.571093 27.010 29.1173
13.669434 27.360 24.0420
13.768489 27.717 18.9611
13.868261 28.087 13.8866
13.968756 28.468 8.7980
14.069979 28.859 3.7026
14.171936 29.261 -1.4242
14.274632 29.676 -6.5933
14.378072 30.097 -11.7559
14.482261 30.516 -16.9264
14.587206 30.934 -22.2106
14.692910 31.344 -27.5155
14.799381 31.735 -32.7582
14.906624 32.101 -38.1068
15.014643 32.441 -43.5510
15.123446 32.742 -48.8632
15.233036 32.996 -54.1775
15.343421 33.201 -59.6553
15.454606 33.346 -64.9399
15.566596 33.422 -70.0742
15.679398 33.428 -75.3726
15.793018 33.346 -80.3925
15.907460 33.170 -85.0721
16.022732 32.894 -89.7837
16.138840 32.498 -94.0215
16.255788 31.966 -97.5932
16.373585 31.295 -100.7358
16.492234 30.467 -102.8403
16.611744 29.427 -103.3194
16.732119 28.284 -101.7909
16.853367 27.263 -97.4316
16.975494 26.401 -88.6889
17.098505 25.936 -76.1935
17.222408 26.248 -63.5911
17.347209 27.308 -53.0988
17.472914 28.612 -46.4591
17.599530 29.850 -43.2694
17.727063 31.047 -42.1918
17.855521 32.092 -42.2981
17.984909 32.949 -43.3941
18.115235 33.659 -44.9331
18.246506 34.248 -46.4699
18.378727 34.719 -48.1896
18.511907 35.109 -49.7047
18.646052 35.431 -50.9577
18.781169 35.702 -52.0204
18.917265 35.955 -52.7546
19.054347 36.192 -53.2086
19.192423 36.434 -53.4997
19.331499 36.692 -53.6164
19.471583 36.963 -53.6528
19.612682 37.249 -53.7375
19.754804 37.546 -53.8358
19.897956 37.846 -54.0208
20.042144 38.144 -54.2942
20.187378 38.439 -54.6233
20.333664 38.726 -54.9986
20.481010 39.011 -55.4143
20.629424 39.296 -55.8472
20.778913 39.583 -56.3067
20.929486 39.876 -56.8436
21.081150 40.176 -57.4395
21.233912 40.477 -58.1647
21.387782 40.778 -59.0265
21.542767 41.067 -59.9979
21.698874 41.339 -61.1074
21.856113 41.589 -62.2590
22.014492 41.811 -63.4036
22.174018 42.011 -64.4936
22.334700 42.193 -65.3897
22.496546 42.369 -66.1204
22.659566 42.558 -66.5969
22.823766 42.772 -66.8739
22.989157 43.029 -67.0572
23.155745 43.332 -67.1777
23.323542 43.678 -67.4761
23.492554 44.057 -67.9256
23.662790 44.445 -68.6704
23.834261 44.830 -69.6375
24.006973 45.189 -70.7411
24.180938 45.521 -71.9151
24.356163 45.825 -72.9112
24.532658 46.118 -73.7218
24.710431 46.429 -74.1327
24.889493 46.788 -74.2894
25.069853 47.232 -74.2075
25.251519 47.770 -74.2770
25.434502 48.408 -74.6503
25.618811 49.108 -75.7547
25.804456 49.840 -77.5964
25.991445 50.548 -80.3172
26.179790 51.203 -83.7852
26.369500 51.767 -87.8607
26.560584 52.225 -92.3875
26.753053 52.558 -97.1455
26.946917 52.766 -101.8825
27.142185 52.847 -106.4958
27.338869 52.818 -110.5579
27.536977 52.696 -114.0394
27.736522 52.532 -116.5382
27.937512 52.378 -118.1254
28.139959 52.305 -118.6839
28.343872 52.373 -118.7725
28.549264 52.609 -118.6224
28.756143 52.989 -119.0745
28.964522 53.459 -120.2782
29.174411 53.954 -122.4822
29.385821 54.408 -125.5349
29.598763 54.787 -129.2842
29.813248 55.064 -133.4946
30.029287 55.231 -137.8534
30.246891 55.289 -142.2838
30.466073 55.247 -146.4395
30.686842 55.118 -150.2298
30.909212 54.918 -153.5179
31.133193 54.674 -156.1258
31.358797 54.410 -158.0091
31.586035 54.156 -159.0647
31.814921 53.957 -159.2991
32.045465 53.853 -158.8139
32.277680 53.885 -157.7656
32.511577 54.085 -156.5792
32.747169 54.444 -155.7340
32.984469 54.931 -155.5503
33.223488 55.490 -156.3286
33.464239 56.054 -158.1004
33.706735 56.578 -160.6852
33.950987 57.025 -163.9238
34.197010 57.381 -167.4895
34.444816 57.648 -171.1100
34.694417 57.843 -174.6176
34.945827 57.995 -177.8342
35.199059 58.143 179.2728
35.454126 58.316 176.5489
35.711041 58.529 173.8144
35.969818 58.777 170.8310
36.230470 59.031 167.3724
36.493011 59.254 163.4271
36.757455 59.412 159.0790
37.023814 59.481 154.4698
37.292104 59.448 149.8547
37.562338 59.321 145.5428
37.834530 59.126 141.7366
38.108695 58.902 138.5728
38.384846 58.698 136.0858
38.662999 58.561 134.1231
38.943167 58.518 132.3250
39.225365 58.562 130.3480
39.509608 58.663 127.9706
39.795911 58.787 125.1188
40.084289 58.902 121.8525
40.374756 58.995 118.3179
40.667328 59.074 114.6713
40.962020 59.161 110.9717
41.258848 59.283 107.1353
41.557827 59.460 102.9511
41.858972 59.691 98.1355
42.162299 59.957 92.4109
42.467824 60.224 85.5758
42.775564 60.449 77.5351
43.085533 60.595 68.2917
43.397749 60.632 57.9192
43.712227 60.543 46.5372
44.028983 60.318 34.2769
44.348036 59.961 21.2667
44.669400 59.482 7.6399
44.993093 58.900 -6.4482
45.319131 58.241 -20.8010
45.647532 57.537 -35.1548
45.978313 56.825 -49.1663
46.311491 56.143 -62.4254
46.647083 55.538 -74.5107
46.985107 55.061 -85.0906
47.325581 54.766 -94.0559
47.668521 54.689 -101.6116
48.013947 54.819 -108.2145
48.361876 55.093 -114.3180
48.712326 55.421 -120.0875
49.065315 55.740 -125.2949
49.420863 56.047 -129.4455
49.778987 56.421 -132.0978
50.139706 56.984 -133.3112
50.503039 57.819 -133.8821
50.869005 58.896 -134.9233
51.237623 60.113 -137.0963
51.608912 61.382 -140.4056
51.982891 62.675 -144.6218
52.359580 63.998 -149.7277
52.739000 65.336 -156.0218
53.121168 66.635 -163.8760
53.506106 67.811 -173.4385
53.893833 68.780 175.4432
54.284370 69.480 163.1269
54.677737 69.868 150.1022
55.073955 69.926 136.9257
55.473043 69.655 124.1879
55.875024 69.077 112.4841
56.279917 68.245 102.3367
56.687745 67.242 94.1758
57.098527 66.176 88.0898
57.512287 65.143 83.7222
57.929045 64.185 80.5482
58.348822 63.301 78.2990
58.771642 62.489 77.0344
59.197525 61.789 76.8522
59.626495 61.261 77.4939
60.058573 60.936 78.4022
60.493782 60.797 79.0837
60.932145 60.816 79.2859
61.373685 60.966 78.7645
61.818424 61.203 77.1557
62.266386 61.448 74.2407
62.717593 61.621 70.1743
63.172071 61.673 65.4222
63.629842 61.603 60.5303
64.090930 61.449 55.8433
64.555359 61.265 51.4502
65.023154 61.097 47.1800
65.494339 60.967 42.7494
65.968938 60.874 37.8607
66.446976 60.799 32.3055
66.928478 60.712 25.9766
67.413469 60.584 18.8711
67.901975 60.395 11.0568
68.394021 60.136 2.6459
68.889632 59.812 -6.3049
69.388835 59.440 -15.7406
69.891655 59.047 -25.6852
70.398118 58.680 -36.2498
70.908252 58.383 -47.7380
71.422083 58.171 -60.6099
71.939636 57.995 -75.2126
72.460941 57.749 -91.4417
72.986023 57.303 -108.7930
73.514909 56.532 -126.2939
74.047629 55.313 -142.8616
74.584208 53.545 -156.8030
75.124676 51.420 -162.9055
75.669061 50.645 -131.9995
76.217390 53.035 -83.5099
76.769692 56.295 -84.0013
77.325997 58.986 -94.5770
77.886333 61.072 -106.6108
78.450730 62.764 -118.0284
79.019216 64.248 -128.6182
79.591822 65.592 -139.1248
80.168577 66.762 -150.1655
80.749512 67.705 -161.7183
81.334656 68.413 -173.3645
81.924040 68.904 175.1666
82.517696 69.182 163.8384
83.115653 69.206 152.6803
83.717943 68.931 142.2029
84.324598 68.358 133.4185
84.935649 67.577 127.3662
85.551128 66.764 124.6825
86.171066 66.150 125.3984
86.795497 65.991 128.7832
87.424453 66.436 132.7407
88.057967 67.373 134.7559
88.696071 68.559 133.9744
89.338800 69.823 130.6890
89.986185 71.063 125.0620
90.638262 72.188 117.1414
91.295065 73.119 107.1633
91.956626 73.792 95.4180
92.622982 74.140 82.1707
93.294166 74.077 67.9254
93.970214 73.537 53.6942
94.651161 72.513 40.9624
95.337042 71.101 31.2469
96.027894 69.501 25.2026
96.723752 67.924 22.0387
97.424652 66.478 20.5447
98.130631 65.175 20.3143
98.841726 64.018 21.4445
99.557974 63.046 24.0704
100.279412 62.354 28.0315
101.006078 62.033 32.4700
101.738010 62.098 36.0481
102.475245 62.424 37.1074
103.217823 62.747 34.5920
103.965782 62.795 29.4019
104.719161 62.451 23.7971
105.477999 61.788 19.9208
106.242336 61.014 18.7151
107.012212 60.364 19.5983
107.787666 59.977 20.7755
108.568740 59.778 20.1033
109.355474 59.520 16.9656
110.147909 58.990 12.6979
110.946086 58.126 9.1572
111.750047 56.988 7.3479
112.559834 55.640 7.0726
113.375489 54.070 8.6039
114.197055 52.364 15.7231
115.024574 51.174 34.5027
115.858089 51.427 57.0038
116.697645 52.781 69.0208
117.543284 54.294 72.2465
118.395051 55.535 70.8975
119.252990 56.419 67.3665
120.117147 56.930 62.3499
120.987565 57.006 56.2944
121.864291 56.603 50.6090
122.747370 55.754 46.6678
123.636848 54.512 45.2406
124.532771 52.974 48.5438
125.435187 51.619 61.8923
126.344142 51.560 86.7112
127.259684 53.141 107.9797
128.181860 55.299 116.2778
129.110718 57.295 117.1260
130.046308 59.047 115.8821
130.988677 60.590 112.9302
131.937875 61.833 107.4745
132.893951 62.684 100.4510
133.856956 63.133 93.2876
134.826938 63.242 87.2722
135.803950 63.134 83.3157
136.788041 62.982 81.9114
137.779264 63.020 83.3948
138.777669 63.466 86.4926
139.783309 64.289 88.0774
140.796237 65.217 86.3784
141.816504 66.001 82.0037
142.844165 66.508 76.1055
143.879273 66.685 69.8657
144.921881 66.573 64.9812
145.972045 66.332 62.6315
147.029819 66.175 62.7744
148.095257 66.341 65.4045
149.168417 67.051 69.5398
150.249353 68.243 71.4832
151.338121 69.557 68.6863
152.434780 70.682 62.0350
153.539385 71.484 53.2338
154.651995 71.947 43.7136
155.772667 72.139 34.7457
156.901460 72.190 26.8661
158.038432 72.201 19.4237
159.183644 72.179 11.5649
160.337154 72.079 3.0979
161.499023 71.852 -6.1519
162.669312 71.412 -16.4034
163.848081 70.648 -27.2238
165.035392 69.473 -37.3221
166.231306 67.885 -44.6819
167.435887 66.030 -47.3140
168.649196 64.198 -45.4961
169.871298 62.651 -41.6663
171.102255 61.450 -37.6617
172.342133 60.528 -33.3091
173.590995 59.965 -26.7024
174.848907 60.052 -18.7953
176.115934 60.921 -12.6354
177.392143 62.288 -12.1766
178.677599 63.549 -21.0027
179.972371 64.203 -37.5461
181.276525 64.072 -58.3054
182.590129 63.267 -81.5941
183.913252 62.154 -109.1654
185.245964 61.351 -145.4766
186.588332 61.461 171.0936
187.940428 62.455 132.9213
189.302322 63.805 104.2430
190.674085 65.111 81.6096
192.055788 66.151 61.3906
193.447503 66.757 41.6036
194.849303 66.819 22.1013
196.261262 66.304 3.5878
197.683452 65.240 -13.4171
199.115948 63.652 -28.9833
200.558824 61.536 -43.5568
202.012156 58.868 -58.7723
203.476019 55.765 -79.3434
204.950490 53.699 -140.6063
206.435646 55.346 149.8007
207.931564 58.529 130.3472
209.438322 61.233 115.3242
210.955998 63.389 102.9536
212.484672 65.292 93.6998
214.024424 67.001 84.0734
215.575333 68.285 71.0319
217.137481 68.943 56.0698
218.710948 68.972 42.3121
220.295818 68.548 32.0073
221.892172 67.861 24.2805
223.500094 66.993 18.9528
225.119668 66.414 23.1150
226.750978 67.059 36.1982
228.394109 68.509 37.0334
230.049147 69.534 25.4786
231.716178 69.640 11.0966
233.395289 68.949 0.6189
235.086567 67.898 -3.3147
236.790102 66.991 -2.1910
238.505980 66.446 -0.9811
240.234293 66.019 -2.5242
241.975130 65.764 1.9398
243.728581 66.442 16.7379
245.494739 67.904 21.2327
247.273695 69.236 15.1965
249.065542 70.096 6.3452
250.870374 70.416 -3.9396
252.688284 70.250 -12.5139
254.519367 70.131 -13.5920
256.363720 70.740 -11.1267
258.221437 71.744 -17.1414
260.092616 72.294 -31.8312
261.977354 71.914 -49.7690
263.875750 70.477 -65.0067
265.787903 68.207 -68.9297
267.713911 66.128 -51.6171
269.653877 65.780 -31.9147
271.607900 66.559 -31.6122
273.576083 66.962 -40.5806
275.558528 66.756 -45.9550
277.555338 66.854 -37.2931
279.566619 67.794 -32.2213
281.592474 68.707 -40.8340
283.633009 68.908 -54.2404
285.688331 68.216 -66.7374
287.758546 66.879 -69.4624
289.843763 65.884 -59.6112
291.944090 66.138 -49.8535
294.059638 67.205 -48.1295
296.190515 68.132 -55.1515
298.336833 68.437 -65.7338
300.498705 68.212 -73.4126
302.676243 67.846 -77.3350
304.869559 67.466 -82.4775
307.078770 66.969 -86.6763
309.303989 66.461 -88.5200
311.545334 65.935 -91.9395
313.802919 65.385 -91.7515
316.076865 65.379 -82.5737
318.367288 66.199 -78.2197
320.674309 67.401 -79.7039
322.998047 68.694 -83.9854
325.338624 69.859 -92.2476
327.696162 70.664 -104.3491
330.070783 70.945 -118.4746
332.462612 70.789 -130.9316
334.871773 70.462 -141.4165
337.298392 70.049 -152.4658
339.742595 69.402 -164.1829
342.204510 68.521 -172.5649
344.684265 67.763 -176.9514
347.181989 67.390 178.1870
349.697813 67.307 171.4050
352.231868 67.418 164.1743
354.784285 67.755 156.4221
357.355198 68.111 144.3455
359.944741 68.076 128.3120
362.553049 67.466 112.6147
365.180258 66.492 102.4431
367.826505 65.755 97.2917
370.491927 65.695 93.1765
373.176665 66.102 84.7395
375.880856 66.364 70.8359
378.604644 66.334 57.6931
381.348169 66.185 44.7202
384.111575 65.808 29.4351
386.895006 65.075 14.9595
389.698607 63.951 -0.7966
392.522524 62.140 -14.6577
395.366904 60.248 -0.6130
398.231895 60.390 35.0847
401.117648 61.883 29.5286
404.024312 62.743 11.3123
406.952038 62.572 -5.2212
409.900981 61.970 -10.6836
412.871292 61.858 -12.4866
415.863128 62.294 -18.9465
418.876643 62.696 -31.3547
421.911996 62.581 -47.0356
424.969344 62.109 -59.7659
428.048847 61.627 -73.5984
431.150666 60.825 -94.6841
434.274961 59.468 -118.8257
437.421897 58.026 -149.0205
440.591636 57.454 -175.2798
443.784345 58.463 -119.4966
447.000189 60.172 124.1338
450.239337 61.958 44.6641
453.501956 63.515 -14.5132
456.788219 64.379 -72.2441
460.098294 64.512 -128.3574
463.432356 64.644 -176.0305
466.790578 65.678 148.8665
470.173135 67.210 117.5054
473.580203 68.121 84.2153
477.011961 68.164 54.3530
480.468586 67.650 30.1904
483.950259 67.094 13.5349
487.457163 66.885 -2.3684
490.989478 66.426 -26.9763
494.547390 65.769 -36.1519
498.131084 66.696 22.7417
501.740748 68.647 3.7578
505.376568 69.869 -31.7471
509.038735 69.891 -72.0515
512.727439 68.774 -117.2671
516.442874 67.097 -177.4438
520.185232 65.979 88.9211
523.954708 65.500 18.5674
527.751500 64.622 -30.1716
531.575805 62.912 -66.0066
535.427822 61.162 -31.4543
539.307753 60.727 -2.4507
543.215800 61.899 -7.5979
547.152165 63.723 -30.7620
551.117055 65.117 -69.8835
555.110677 65.743 -125.0488
559.133237 65.727 154.9495
563.184947 65.649 78.1460
567.266018 65.491 26.3611
571.376661 64.814 -10.2849
575.517092 63.871 -36.8071
579.687526 63.266 -56.8359
583.888181 63.352 -80.5398
588.119275 63.614 -118.9309
592.381030 63.290 178.7395
596.673667 61.984 87.4172
600.997410 60.608 27.4619
605.352485 60.559 -7.3740
609.739119 60.915 -43.8271
614.157540 60.718 -81.4302
618.607979 60.956 -125.4951
623.090667 62.638 168.3916
627.605839 65.355 98.5010
632.153730 67.953 40.0776
636.734576 69.737 -17.5332
641.348617 70.574 -77.6206
645.996094 70.232 -139.5371
650.677248 68.743 165.6660
655.392323 66.935 124.7676
660.141566 65.673 90.6831
664.925224 64.491 62.0244
669.743546 63.306 50.9468
674.596784 63.021 44.7266
679.485191 63.271 35.6260
684.409020 64.014 36.6318
689.368530 64.916 23.6709
694.363979 65.511 17.6294
699.395626 65.792 6.4180
704.463736 65.097 -11.1582
709.568570 63.766 -19.5020
714.710396 62.958 -24.2251
719.889483 63.823 5.2217
725.106099 65.288 0.0610
730.360516 66.126 -24.6108
735.653010 66.591 -52.4312
740.983855 66.423 -89.3130
746.353329 64.925 -134.9702
751.761713 62.200 175.5854
757.209288 59.790 122.8677
762.696339 59.482 78.9512
768.223151 60.699 80.1812
773.790013 62.720 94.0376
779.397214 64.660 71.4365
785.045047 66.315 51.2837
790.733808 67.636 32.3706
796.463791 68.304 13.8359
802.235296 68.840 2.3706
808.048623 69.335 -15.7036
813.904077 69.062 -36.9360
819.801961 68.070 -53.9185
825.742584 66.999 -67.9463
831.726255 67.057 -77.0820
837.753287 67.989 -104.2612
843.823992 67.899 -156.5220
849.938689 66.224 132.5513
856.097695 63.698 67.2632
862.301332 61.934 30.0664
868.549922 63.139 47.2671
874.843793 66.678 80.0894
881.183272 69.617 57.1030
887.568689 70.651 22.7402
894.000378 69.928 -5.1338
900.478673 68.841 -16.2075
907.003913 69.219 -10.6465
913.576437 70.434 -25.1440
920.196588 70.536 -54.3145
926.864712 69.109 -83.7559
933.581156 66.571 -108.5435
940.346270 64.212 -77.2124
947.160407 63.779 -7.3359
954.023921 64.628 13.0269
960.937172 66.478 16.5566
967.900519 68.350 -2.3999
974.914325 69.267 -25.3350
981.978956 69.263 -45.3574
989.094780 68.694 -61.5239
996.262169 67.690 -77.4722
1003.481495 66.185 -91.1074
1010.753136 65.025 -71.6353
1018.077470 65.803 -42.6133
1025.454879 67.162 -55.4941
1032.885748 67.355 -73.6450
1040.370463 66.570 -80.8999
1047.909417 66.006 -87.4048
1055.503000 65.806 -102.3525
1063.151610 65.077 -109.8979
1070.855645 64.027 -76.9604
1078.615506 63.483 -79.5244
1086.431599 63.238 -92.5859
1094.304330 63.475 -96.8901
1102.234110 65.718 -51.0444
1110.221353 68.448 -33.4229
1118.266475 69.951 -63.9849
1126.369895 69.840 -97.9272
1134.532035 68.482 -126.6489
1142.753322 66.452 -151.4272
1151.034184 64.395 -132.0513
1159.375052 63.550 -105.8330
1167.776361 64.497 -64.6846
1176.238550 66.229 -56.0659
1184.762060 66.576 -87.3096
1193.347334 65.118 -105.7290
1201.994821 64.110 -83.3203
1210.704971 64.881 -85.7534
1219.478238 64.983 -107.9766
1228.315080 63.973 -106.1670
1237.215957 63.731 -90.4912
1246.181334 64.048 -104.2705
1255.211678 63.475 -120.5005
1264.307459 62.428 -123.4399
1273.469152 61.970 -121.7368
1282.697235 61.884 -127.9976
1291.992188 61.770 -129.7759
1301.354495 61.522 -138.7686
1310.784647 60.439 -147.1841
1320.283132 59.694 -116.6660
1329.850448 60.184 -106.2407
1339.487093 60.812 -117.5415
1349.193569 61.953 -103.4634
1358.970381 64.305 -88.5757
1368.818041 66.387 -107.4688
1378.737061 67.462 -130.1943
1388.727958 67.858 -145.4009
1398.791253 67.662 -169.0449
1408.927471 66.601 167.6685
1419.137140 65.859 -167.7686
1429.420793 65.972 -167.4741
1439.778965 64.984 170.9302
1450.212197 63.256 -171.1924
1460.721033 62.314 -162.4810
1471.306019 61.935 -173.4346
1481.967709 62.426 -167.2090
1492.706658 63.369 177.3452
1503.523426 63.675 150.4976
1514.418576 63.432 120.1357
1525.392678 63.044 82.9023
1536.446302 63.318 33.5542
1547.580025 64.186 -25.7373
1558.794428 65.115 -79.7788
1570.090095 65.198 -126.8999
1581.467615 64.648 -152.2588
1592.927581 64.938 -140.3945
1604.470591 65.179 -166.3169
1616.097246 63.933 164.5156
1627.808153 61.774 167.2173
1639.603922 60.884 -166.8853
1651.485168 61.695 -172.8433
1663.452510 62.004 159.2808
1675.506573 61.103 132.2930
1687.647984 59.795 123.5381
1699.877377 59.713 158.6362
1712.195390 61.048 155.4937
1724.602663 62.154 131.8281
1737.099845 62.479 100.5703
1749.687587 62.387 62.9253
1762.366544 62.544 46.1890
1775.137379 63.209 129.2275
1788.000756 63.882 80.2021
1800.957346 64.006 31.2085
1814.007826 63.509 -10.0649
1827.152874 62.995 -47.0918
1840.393177 62.449 -88.3193
1853.729425 61.851 -122.0894
1867.162312 61.301 -126.9780
1880.692540 60.631 -115.2056
1894.320813 60.933 -125.4688
1908.047843 62.205 -146.6538
1921.874344 63.004 -173.1035
1935.801038 63.155 167.5459
