* Measurement data measured by REW V5.31
* Source: Scarlett 2i4 USB, MICROPHONE, R, volume: no control. Timing signal peak level -30.6 dBFS, measurement signal peak level -25.6 dBFS
* Format: 512k Log Swept Sine, 1 sweep at -18.0 dBFS using an acoustic timing reference
* Dated: Apr 16, 2024 9:57:23 AM
* REW Settings:
*  C-weighting compensation: Off
*  Target level: 75.0 dB
* Note: ; Delay -0.0130 ms (-4.4 mm, -0.18 in) using estimated IR delay relative to Acoustic reference played from SPEAKER L with no timing offset
* Measurement: curtains-p1-l
* Smoothing: 1/48 octave
* Frequency Step: 96 ppo
* Start Frequency: 10.093689 Hz
*
* Freq(Hz) SPL(dB) Phase(degrees)
10.093689 19.197 -1.3343
10.166832 18.701 -5.7476
10.240505 18.089 -10.5625
10.314712 17.446 -15.5268
10.389457 16.735 -20.1673
10.464743 15.676 -23.8737
10.540575 13.910 -27.2763
10.616956 11.789 -30.2932
10.693891 9.848 -31.8390
10.771383 8.704 -28.3726
10.849437 8.646 -7.6681
10.928057 9.416 50.4219
11.007246 10.675 79.5347
11.087009 12.173 84.9269
11.167350 13.894 83.5692
11.248273 15.904 80.4778
11.329783 17.946 76.6963
11.411883 19.747 72.4127
11.494578 21.159 67.4480
11.577873 22.282 61.9625
11.661771 23.214 56.4828
11.746277 24.035 51.1588
11.831395 24.784 45.7191
11.917130 25.429 39.7880
12.003487 25.976 33.8500
12.090469 26.442 28.1999
12.178081 26.836 22.5896
12.266329 27.148 16.4970
12.355216 27.377 10.4043
12.444747 27.524 4.7183
12.534926 27.592 -0.9677
12.625760 27.574 -7.0907
12.717251 27.454 -13.1288
12.809406 27.222 -18.5765
12.902228 26.893 -24.2006
12.995723 26.431 -30.1046
13.089895 25.766 -35.6524
13.184750 24.838 -40.3466
13.280292 23.651 -45.0843
13.376526 22.246 -49.4274
13.473458 20.617 -51.7626
13.571093 18.470 -49.9464
13.669434 16.212 -36.2859
13.768489 15.127 14.7362
13.868261 16.530 52.0422
13.968756 19.650 60.9981
14.069979 22.880 61.4601
14.171936 25.336 58.5675
14.274632 27.168 54.2911
14.378072 28.663 49.6447
14.482261 29.967 44.8060
14.587206 31.087 39.4660
14.692910 32.027 33.9995
14.799381 32.844 28.7411
14.906624 33.558 23.3723
15.014643 34.158 17.8302
15.123446 34.668 12.5442
15.233036 35.096 7.4011
15.343421 35.439 2.1057
15.454606 35.708 -2.9373
15.566596 35.909 -7.6901
15.679398 36.041 -12.4932
15.793018 36.112 -17.0265
15.907460 36.127 -21.1852
16.022732 36.087 -25.2389
16.138840 36.003 -28.9802
16.255788 35.880 -32.2988
16.373585 35.722 -35.3462
16.492234 35.545 -38.0603
16.611744 35.356 -40.3437
16.732119 35.160 -42.2718
16.853367 34.975 -43.9437
16.975494 34.806 -45.2605
17.098505 34.654 -46.3148
17.222408 34.525 -47.2691
17.347209 34.419 -48.0411
17.472914 34.329 -48.7028
17.599530 34.248 -49.3349
17.727063 34.175 -49.8839
17.855521 34.102 -50.2944
17.984909 34.026 -50.5809
18.115235 33.956 -50.6826
18.246506 33.900 -50.4964
18.378727 33.863 -50.0314
18.511907 33.871 -49.3403
18.646052 33.939 -48.3754
18.781169 34.073 -47.2824
18.917265 34.285 -46.3037
19.054347 34.574 -45.3900
19.192423 34.916 -44.8245
19.331499 35.300 -44.6529
19.471583 35.705 -44.8261
19.612682 36.101 -45.3980
19.754804 36.483 -46.2914
19.897956 36.836 -47.3198
20.042144 37.155 -48.5214
20.187378 37.447 -49.6956
20.333664 37.714 -50.7574
20.481010 37.969 -51.7227
20.629424 38.233 -52.4785
20.778913 38.511 -53.0813
20.929486 38.824 -53.6583
21.081150 39.173 -54.1695
21.233912 39.552 -54.8833
21.387782 39.961 -55.7869
21.542767 40.373 -56.9703
21.698874 40.774 -58.5131
21.856113 41.146 -60.2798
22.014492 41.466 -62.2909
22.174018 41.730 -64.4066
22.334700 41.925 -66.4470
22.496546 42.055 -68.3960
22.659566 42.127 -69.9237
22.823766 42.156 -71.0850
22.989157 42.174 -71.6168
23.155745 42.204 -71.5728
23.323542 42.294 -71.0150
23.492554 42.459 -70.0145
23.662790 42.720 -68.9806
23.834261 43.068 -67.9670
24.006973 43.473 -67.3431
24.180938 43.915 -67.0414
24.356163 44.356 -67.0949
24.532658 44.788 -67.3759
24.710431 45.202 -67.6881
24.889493 45.616 -67.9821
25.069853 46.052 -68.0814
25.251519 46.539 -68.1646
25.434502 47.103 -68.2102
25.618811 47.746 -68.6776
25.804456 48.465 -69.5745
25.991445 49.220 -71.3547
26.179790 49.983 -73.8796
26.369500 50.706 -77.3267
26.560584 51.365 -81.4609
26.753053 51.928 -86.2642
26.946917 52.382 -91.4303
27.142185 52.714 -96.9844
27.338869 52.920 -102.4759
27.536977 52.999 -108.0022
27.736522 52.958 -113.0631
27.937512 52.812 -117.6733
28.139959 52.585 -121.4730
28.343872 52.326 -124.3778
28.549264 52.080 -126.2347
28.756143 51.926 -127.2229
28.964522 51.903 -127.6458
29.174411 52.040 -127.9060
29.385821 52.301 -128.6631
29.598763 52.644 -130.0439
29.813248 52.996 -132.2977
30.029287 53.304 -135.1782
30.246891 53.534 -138.6058
30.466073 53.663 -142.2134
30.686842 53.687 -145.7529
30.909212 53.613 -149.0440
31.133193 53.466 -151.7185
31.358797 53.281 -153.7010
31.586035 53.099 -154.8388
31.814921 52.978 -155.2131
32.045465 52.958 -155.0795
32.277680 53.061 -154.7013
32.511577 53.280 -154.5684
32.747169 53.579 -154.9364
32.984469 53.918 -155.9115
33.223488 54.250 -157.5310
33.464239 54.543 -159.6217
33.706735 54.779 -162.0185
33.950987 54.952 -164.5597
34.197010 55.070 -167.0089
34.444816 55.150 -169.2600
34.694417 55.216 -171.2684
34.945827 55.293 -173.0345
35.199059 55.401 -174.7228
35.454126 55.541 -176.5169
35.711041 55.699 -178.5595
35.969818 55.852 179.0293
36.230470 55.966 176.2579
36.493011 56.017 173.2662
36.757455 55.992 170.2117
37.023814 55.887 167.2774
37.292104 55.713 164.6729
37.562338 55.491 162.5306
37.834530 55.243 160.8826
38.108695 54.988 159.7217
38.384846 54.736 159.0083
38.662999 54.494 158.7076
38.943167 54.262 158.8428
39.225365 54.053 159.4582
39.509608 53.882 160.5466
39.795911 53.762 162.0399
40.084289 53.692 163.8592
40.374756 53.663 166.0397
40.667328 53.680 168.9180
40.962020 53.818 173.0809
41.258848 54.240 178.7706
41.557827 55.098 -174.9181
41.858972 56.388 -169.9741
42.162299 57.934 -168.0163
42.467824 59.506 -169.3495
42.775564 60.942 -173.4027
43.085533 62.164 -179.3899
43.397749 63.146 173.3961
43.712227 63.894 165.5284
44.028983 64.425 157.4432
44.348036 64.768 149.4561
44.669400 64.953 141.7823
44.993093 65.012 134.5501
45.319131 64.974 127.8137
45.647532 64.861 121.5808
45.978313 64.688 115.8497
46.311491 64.466 110.6408
46.647083 64.212 106.0006
46.985107 63.945 101.9675
47.325581 63.696 98.5139
47.668521 63.487 95.5111
48.013947 63.331 92.7672
48.361876 63.219 90.1292
48.712326 63.138 87.5719
49.065315 63.088 85.1832
49.420863 63.091 83.0403
49.778987 63.181 81.0586
50.139706 63.380 78.9520
50.503039 63.682 76.3735
50.869005 64.054 73.1084
51.237623 64.470 69.1349
51.608912 64.922 64.4954
51.982891 65.421 59.1007
52.359580 65.967 52.6512
52.739000 66.525 44.7613
53.121168 67.023 35.1820
53.506106 67.379 23.9276
53.893833 67.520 11.2134
54.284370 67.390 -2.6069
54.677737 66.953 -17.0800
55.073955 66.192 -31.6998
55.473043 65.110 -45.9302
55.875024 63.734 -59.2507
56.279917 62.130 -71.2479
56.687745 60.405 -81.7860
57.098527 58.698 -91.3433
57.512287 57.124 -100.9977
57.929045 55.727 -111.8585
58.348822 54.504 -124.5455
58.771642 53.480 -139.1612
59.197525 52.769 -155.4280
59.626495 52.518 -172.8203
60.058573 52.769 169.3541
60.493782 53.400 151.6888
60.932145 54.202 134.5532
61.373685 55.002 118.0695
61.818424 55.686 102.3187
62.266386 56.198 87.4325
62.717593 56.526 73.4833
63.172071 56.691 60.6497
63.629842 56.749 49.1047
64.090930 56.774 38.8000
64.555359 56.842 29.4651
65.023154 56.994 20.6244
65.494339 57.225 11.8497
65.968938 57.504 2.9390
66.446976 57.805 -6.0444
66.928478 58.128 -14.9152
67.413469 58.496 -23.5544
67.901975 58.930 -32.0078
68.394021 59.434 -40.4388
68.889632 59.993 -48.9606
69.388835 60.589 -57.5413
69.891655 61.224 -66.0595
70.398118 61.920 -74.5175
70.908252 62.687 -83.1810
71.422083 63.486 -92.5100
71.939636 64.240 -102.7324
72.460941 64.865 -113.6695
72.986023 65.320 -124.8351
73.514909 65.619 -135.6122
74.047629 65.821 -145.6394
74.584208 65.997 -154.9115
75.124676 66.192 -163.8197
75.669061 66.400 -172.8469
76.217390 66.573 177.6575
76.769692 66.653 167.5936
77.325997 66.583 157.0010
77.886333 66.310 146.0695
78.450730 65.788 134.9978
79.019216 64.965 124.0027
79.591822 63.770 113.4230
80.168577 62.100 103.9194
80.749512 59.849 97.3889
81.334656 57.179 100.8232
81.924040 55.682 142.0226
82.517696 57.284 -175.9114
83.115653 60.086 -171.0056
83.717943 62.523 -176.0195
84.324598 64.395 175.6002
84.935649 65.759 165.8859
85.551128 66.702 155.9644
86.171066 67.324 146.6107
86.795497 67.736 138.2781
87.424453 68.048 131.0200
88.057967 68.338 124.4875
88.696071 68.635 118.1799
89.338800 68.933 111.8073
89.986185 69.230 105.3774
90.638262 69.554 98.8760
91.295065 69.928 91.8896
91.956626 70.317 83.6477
92.622982 70.604 73.5630
93.294166 70.639 61.7493
93.970214 70.300 49.0842
94.651161 69.539 36.9368
95.337042 68.410 26.7333
96.027894 67.062 19.3335
96.723752 65.686 14.4850
97.424652 64.422 11.1288
98.130631 63.314 8.2583
98.841726 62.325 5.2090
99.557974 61.371 1.7695
100.279412 60.377 -1.6788
101.006078 59.332 -4.6415
101.738010 58.271 -7.1201
102.475245 57.220 -9.4459
103.217823 56.183 -11.9086
103.965782 55.144 -15.0452
104.719161 54.024 -19.4685
105.477999 52.691 -24.9032
106.242336 51.062 -30.0227
107.012212 49.213 -33.3298
107.787666 47.495 -34.7544
108.568740 46.522 -38.7583
109.355474 46.596 -52.1622
110.147909 47.367 -75.4048
110.946086 48.476 -101.8679
111.750047 49.802 -124.4640
112.559834 51.265 -141.1742
113.375489 52.776 -153.2106
114.197055 54.296 -162.0850
115.024574 55.811 -169.2743
115.858089 57.244 -176.4515
116.697645 58.468 175.5347
117.543284 59.388 167.0948
118.395051 59.996 159.2765
119.252990 60.376 153.2555
120.117147 60.716 149.9352
120.987565 61.253 149.2303
121.864291 62.115 149.2765
122.747370 63.202 147.8021
123.636848 64.321 144.1868
124.532771 65.346 138.9576
125.435187 66.220 132.6447
126.344142 66.932 125.8501
127.259684 67.527 119.2546
128.181860 68.089 113.0806
129.110718 68.668 106.7445
130.046308 69.217 99.3165
130.988677 69.623 90.5471
131.937875 69.817 81.2002
132.893951 69.825 72.1915
133.856956 69.731 63.6943
134.826938 69.608 55.3457
135.803950 69.488 46.3022
136.788041 69.283 35.0385
137.779264 68.760 20.8883
138.777669 67.686 4.9352
139.783309 65.938 -11.4282
140.796237 63.489 -28.1792
141.816504 60.448 -48.6333
142.844165 57.748 -109.7374
143.879273 57.605 144.4088
144.921881 59.330 120.7476
145.972045 60.916 106.1359
147.029819 61.949 95.3246
148.095257 62.559 87.5594
149.168417 62.947 82.4066
150.249353 63.291 79.1272
151.338121 63.731 77.1763
152.434780 64.339 75.2156
153.539385 64.983 70.8781
154.651995 65.394 63.5089
155.772667 65.359 54.7731
156.901460 64.839 47.4011
158.038432 63.987 43.7098
159.183644 63.072 43.9353
160.337154 62.361 47.4048
161.499023 62.125 53.6527
162.669312 62.551 60.3409
163.848081 63.557 65.0359
165.035392 64.816 65.1201
166.231306 65.907 59.6564
167.435887 66.557 50.6523
168.649196 66.660 40.4397
169.871298 66.216 31.0543
171.102255 65.313 24.5120
172.342133 64.173 22.8396
173.590995 63.159 25.9639
174.848907 62.528 30.0697
176.115934 62.298 34.2406
177.392143 62.640 41.7568
178.677599 63.665 48.4788
179.972371 64.860 47.1694
181.276525 65.674 40.0723
182.590129 65.972 32.0482
183.913252 65.928 26.0051
185.245964 65.807 22.0614
186.588332 65.738 18.1755
187.940428 65.652 13.0122
189.302322 65.443 7.1205
190.674085 65.105 1.3655
192.055788 64.707 -4.4153
193.447503 64.258 -12.0525
194.849303 63.628 -23.3199
196.261262 62.692 -39.5170
197.683452 61.534 -64.9819
199.115948 60.793 -115.8845
200.558824 61.446 164.2632
202.012156 63.100 121.4717
203.476019 64.651 96.3442
204.950490 65.647 77.4424
206.435646 66.081 62.8496
207.931564 66.253 53.9702
209.438322 66.670 51.0271
210.955998 67.375 45.9453
212.484672 67.712 34.0576
214.024424 67.254 22.0513
215.575333 66.275 17.6721
217.137481 65.673 23.5725
218.710948 66.205 31.4795
220.295818 67.341 29.9792
221.892172 68.106 19.4131
223.500094 68.055 6.0095
225.119668 67.198 -4.5276
226.750978 65.838 -8.7202
228.394109 64.379 -8.3535
230.049147 63.079 -6.0630
231.716178 62.491 6.1167
233.395289 63.614 29.8013
235.086567 65.812 38.2976
236.790102 67.764 31.5076
238.505980 69.020 18.7495
240.234293 69.603 4.4644
241.975130 69.544 -10.9211
243.728581 68.704 -26.9390
245.494739 66.951 -38.0906
247.273695 64.550 -35.8315
249.065542 62.323 -24.9409
250.870374 61.409 -8.4121
252.688284 62.698 19.7390
254.519367 65.152 30.0588
256.363720 67.343 24.3459
258.221437 68.760 11.6907
260.092616 69.279 -3.2952
261.977354 68.993 -16.0251
263.875750 68.279 -22.3247
265.787903 67.756 -22.7488
267.713911 67.743 -23.7104
269.653877 67.903 -29.5547
271.607900 67.702 -39.4038
273.576083 66.865 -48.7551
275.558528 65.519 -52.7786
277.555338 64.202 -48.6750
279.566619 63.661 -39.1003
281.592474 63.786 -38.6882
283.633009 63.586 -47.7908
285.688331 63.111 -40.0872
287.758546 63.983 -1.3765
289.843763 66.080 2.0649
291.944090 68.024 -7.1372
294.059638 69.302 -20.8042
296.190515 69.811 -36.3005
298.336833 69.571 -51.1638
300.498705 68.648 -63.4709
302.676243 67.189 -70.2246
304.869559 65.707 -66.3447
307.078770 65.261 -52.7534
309.303989 66.246 -43.7178
311.545334 67.804 -44.2258
313.802919 69.272 -50.5332
316.076865 70.415 -60.6365
318.367288 71.110 -73.5972
320.674309 71.253 -88.1663
322.998047 70.837 -101.7686
325.338624 70.075 -111.1753
327.696162 69.433 -115.3831
330.070783 69.188 -120.5715
332.462612 69.044 -129.6895
334.871773 68.701 -139.5098
337.298392 68.231 -147.1199
339.742595 67.928 -152.7056
342.204510 67.944 -159.0872
344.684265 68.056 -169.3413
347.181989 67.933 177.9595
349.697813 67.515 165.9041
352.231868 66.894 154.6157
354.784285 66.243 146.5571
357.355198 65.979 142.4277
359.944741 66.128 134.3154
362.553049 66.155 121.4785
365.180258 65.828 109.5510
367.826505 65.699 106.1333
370.491927 66.497 107.1765
373.176665 67.604 96.4253
375.880856 68.119 78.8381
378.604644 67.948 62.7744
381.348169 67.366 50.1824
384.111575 66.624 40.7903
386.895006 65.949 34.9333
389.698607 65.535 31.1221
392.522524 65.353 26.2019
395.366904 65.493 24.7688
398.231895 66.246 24.7681
401.117648 67.198 17.2605
404.024312 67.681 3.6306
406.952038 67.580 -8.4829
409.900981 67.331 -15.6890
412.871292 67.234 -23.4243
415.863128 67.183 -32.8708
418.876643 67.049 -43.4956
421.911996 66.741 -55.5173
424.969344 66.045 -70.7104
428.048847 64.701 -86.3564
431.150666 63.272 -86.5728
434.274961 63.601 -45.5508
437.421897 65.230 -49.6436
440.591636 66.219 -72.8376
443.784345 66.314 -93.3582
447.000189 66.441 -104.7310
450.239337 67.012 -122.0325
453.501956 67.410 -146.9656
456.788219 67.438 -173.4712
460.098294 67.217 159.3594
463.432356 66.841 132.3237
466.790578 66.383 105.5610
470.173135 65.613 77.2756
473.580203 64.105 51.0325
477.011961 62.343 42.9578
480.468586 62.767 81.6123
483.950259 65.187 84.0886
487.457163 67.095 61.7095
490.989478 67.972 37.4089
494.547390 68.234 17.5381
498.131084 68.266 0.2349
501.740748 68.108 -16.6843
505.376568 67.719 -33.1646
509.038735 67.031 -50.1216
512.727439 65.987 -65.8743
516.442874 65.038 -76.0183
520.185232 64.980 -86.9824
523.954708 65.202 -115.2368
527.751500 64.512 -161.4177
531.575805 63.026 125.1963
535.427822 61.683 38.9788
539.307753 60.580 -11.4600
543.215800 59.489 -27.5696
547.152165 59.673 -0.2673
551.117055 61.233 -9.0452
555.110677 62.809 -27.4419
559.133237 64.187 -44.4622
563.184947 65.639 -60.0862
567.266018 66.737 -83.5767
571.376661 66.781 -113.5750
575.517092 65.597 -141.5908
579.687526 63.580 -159.6577
583.888181 61.530 -172.2805
588.119275 60.147 -169.1233
592.381030 60.283 -155.0615
596.673667 60.796 -174.2712
600.997410 60.539 165.1619
605.352485 60.419 161.3271
609.739119 61.351 158.5864
614.157540 62.798 147.1543
618.607979 64.430 134.4341
623.090667 65.843 115.9233
627.605839 67.024 99.4019
632.153730 68.216 85.2041
636.734576 68.778 60.7454
641.348617 68.430 36.7373
645.996094 67.722 14.3445
650.677248 66.708 -11.0588
655.392323 65.721 -35.7637
660.141566 65.508 -74.6633
664.925224 65.795 -139.9995
669.743546 67.058 159.1475
674.596784 69.231 117.7063
679.485191 71.091 81.4517
684.409020 71.931 45.3372
689.368530 71.484 11.3418
694.363979 69.882 -14.3193
699.395626 67.824 -30.3687
704.463736 66.164 -45.2979
709.568570 65.032 -67.5830
714.710396 63.974 -86.2861
719.889483 63.745 7.3535
725.106099 64.831 -18.2646
730.360516 65.808 -53.6235
735.653010 65.788 -91.7178
740.983855 65.147 -126.1748
746.353329 64.900 -159.7139
751.761713 64.978 164.0273
757.209288 65.264 133.7065
762.696339 66.339 112.6738
768.223151 67.907 91.4341
773.790013 68.760 62.9062
779.397214 68.533 34.5835
785.045047 67.382 8.7217
790.733808 65.747 13.2808
796.463791 65.553 44.0068
802.235296 67.111 33.1631
808.048623 68.940 15.4214
813.904077 69.853 -12.3682
819.801961 69.161 -43.5176
825.742584 67.203 -65.1328
831.726255 65.141 -85.0996
837.753287 63.272 -115.9614
843.823992 61.497 -154.7275
849.938689 61.374 168.6680
856.097695 63.870 146.4097
862.301332 66.461 116.9038
868.549922 67.778 84.3491
874.843793 68.244 60.4468
881.183272 68.776 44.2690
887.568689 69.372 27.1177
894.000378 69.657 9.1230
900.478673 69.578 -8.2549
907.003913 69.271 -26.6699
913.576437 68.747 -46.9839
920.196588 68.021 -73.0371
926.864712 66.917 -111.1694
933.581156 65.817 -171.5596
940.346270 65.968 115.1875
947.160407 66.886 68.0337
954.023921 67.450 37.7939
960.937172 67.779 16.8789
967.900519 67.782 -1.3286
974.914325 67.458 -16.1831
981.978956 66.758 -32.1875
989.094780 65.462 -47.6099
996.262169 64.175 -54.0781
1003.481495 64.789 1.9189
1010.753136 66.691 6.6782
1018.077470 67.707 -15.8965
1025.454879 67.771 -34.2471
1032.885748 67.525 -48.7446
1040.370463 67.031 -64.9873
1047.909417 65.886 -81.5342
1055.503000 64.513 -67.6924
1063.151610 64.467 -57.3228
1070.855645 65.013 -78.5518
1078.615506 65.037 -111.3604
1086.431599 64.636 -167.0493
1094.304330 65.443 63.5259
1102.234110 67.274 14.1001
1110.221353 68.546 -22.9253
1118.266475 68.855 -57.2021
1126.369895 68.031 -90.6372
1134.532035 66.156 -123.9707
1142.753322 63.479 -149.5298
1151.034184 60.795 -34.5449
1159.375052 59.507 -33.7300
1167.776361 60.943 -21.5728
1176.238550 64.063 -10.2085
1184.762060 66.392 -24.5654
1193.347334 66.532 -57.1572
1201.994821 64.490 -78.4043
1210.704971 61.479 -77.5386
1219.478238 59.646 -62.1904
1228.315080 60.133 -42.9990
1237.215957 61.066 -53.6851
1246.181334 60.652 -72.3394
1255.211678 59.255 -71.1997
1264.307459 58.990 -49.2319
1273.469152 60.695 -12.6460
1282.697235 62.623 -19.1055
1291.992188 63.845 -34.9741
1301.354495 64.623 -48.1460
1310.784647 64.937 -61.0278
1320.283132 65.340 -63.6826
1329.850448 65.887 -75.6797
1339.487093 65.544 -96.7637
1349.193569 64.199 -107.7583
1358.970381 62.712 -87.3506
1368.818041 62.496 -80.9893
1378.737061 63.288 -90.4141
1388.727958 63.502 -109.1299
1398.791253 63.182 -102.6196
1408.927471 63.666 -77.0156
1419.137140 64.421 -86.1899
1429.420793 64.444 -105.5225
1439.778965 63.175 -122.7383
1450.212197 61.439 -123.8706
1460.721033 60.362 -130.0342
1471.306019 60.050 -129.2744
1481.967709 61.245 -70.9131
1492.706658 63.111 -80.3774
1503.523426 64.011 -104.7441
1514.418576 63.540 -129.0049
1525.392678 61.874 -138.3018
1536.446302 60.158 -129.2290
1547.580025 59.208 -129.0962
1558.794428 59.297 -111.8027
1570.090095 60.349 -85.1553
1581.467615 61.545 -95.2295
1592.927581 62.359 -106.1465
1604.470591 63.046 -109.9199
1616.097246 63.753 -117.2495
1627.808153 64.339 -125.6836
1639.603922 65.451 -128.6626
1651.485168 66.738 -141.1562
1663.452510 67.272 -162.4629
1675.506573 67.078 175.6235
1687.647984 66.355 151.4565
1699.877377 64.729 134.9492
1712.195390 62.831 146.6782
1724.602663 62.588 -177.5176
1737.099845 63.511 -166.6689
1749.687587 63.767 175.9180
1762.366544 62.680 149.7373
1775.137379 60.757 135.0176
1788.000756 59.606 151.5181
1800.957346 59.749 144.9810
1814.007826 59.929 120.7129
1827.152874 60.708 86.7871
1840.393177 62.773 -4.0586
1853.729425 65.337 -78.4023
1867.162312 67.351 -126.5010
1880.692540 68.069 -169.0005
1894.320813 67.338 155.0513
1908.047843 65.803 129.0791
1921.874344 64.404 111.4321
